#|wavelength|    flux     |
  5500.000    1.47786E-18
  5502.553    1.47786E-18
  5505.106    1.47786E-18
  5507.659    5.18071E-19
  5510.212    1.75721E-18
  5512.765    2.51043E-18
#  5515.318   -5.94676E-19
  5517.871    3.19826E-18
  5520.424    1.32159E-18
  5522.977    3.66723E-18
  5525.530    1.46862E-18
  5528.083    2.36672E-18
  5530.636    2.61295E-18
  5533.189    2.24534E-18
  5535.742    1.65903E-18
  5538.295    1.08412E-18
  5540.848    2.39757E-18
  5543.401    5.05462E-19
  5545.954    2.24347E-18
  5548.507    3.08601E-18
  5551.060    4.09366E-18
  5553.613    3.15916E-18
  5556.166    2.77751E-18
  5558.719    1.76712E-18
  5561.272    4.38973E-18
  5563.825    3.99388E-18
  5566.378    1.91072E-18
  5568.931    2.90954E-18
  5571.484    2.89845E-18
  5574.037    2.35847E-18
  5576.590    4.89010E-18
  5579.143    1.94716E-18
  5581.696    3.82799E-18
  5584.249    2.58709E-18
  5586.802    2.27871E-18
  5589.355    2.25141E-18
  5591.908    8.88594E-19
  5594.461    1.82903E-18
  5597.014    2.46812E-18
  5599.567    2.09351E-18
  5602.120    2.37071E-18
  5604.673    2.72224E-18
  5607.226    3.04885E-18
  5609.779    2.36049E-18
  5612.332    2.27710E-18
  5614.885    1.96775E-18
  5617.438    1.88981E-18
  5619.991    2.56144E-18
  5622.544    1.07827E-18
  5625.097    1.96681E-18
  5627.650    2.84900E-20
  5630.203    2.64594E-18
  5632.756    1.63893E-18
  5635.309    3.06056E-18
  5637.862    2.48621E-18
  5640.415    2.73727E-18
  5642.968    2.84929E-18
  5645.521    2.88297E-18
  5648.074    3.19049E-18
  5650.627    2.61530E-18
  5653.180    1.51929E-18
  5655.733    2.50232E-18
  5658.286    2.54621E-18
  5660.839    3.49851E-18
  5663.392    4.36164E-18
  5665.945    2.51609E-18
  5668.498    3.01693E-18
  5671.051    4.26440E-18
  5673.604    3.10809E-18
  5676.157    3.62059E-18
  5678.710    3.29576E-18
  5681.263    2.44414E-18
  5683.816    3.24882E-18
  5686.369    2.85567E-18
  5688.922    2.24442E-18
  5691.475    1.97527E-18
  5694.028    3.61662E-18
  5696.581    3.77269E-18
  5699.134    2.93708E-18
  5701.687    3.80176E-18
  5704.240    3.31480E-18
  5706.793    3.19634E-18
  5709.346    3.18028E-18
  5711.899    2.68470E-18
  5714.452    1.94368E-18
  5717.005    2.78565E-18
  5719.558    2.48055E-18
  5722.111    2.31170E-18
  5724.664    3.56124E-18
  5727.217    2.74872E-18
  5729.770    2.25864E-18
  5732.323    1.45950E-18
  5734.876    2.25384E-18
  5737.429    4.63581E-19
  5739.982    1.83956E-18
  5742.535    3.12306E-18
  5745.088    2.02598E-18
  5747.641    1.73874E-18
  5750.194    1.52795E-18
  5752.747    1.94501E-18
  5755.300    1.90355E-18
  5757.853    2.55749E-18
  5760.406    2.05592E-18
  5762.959    1.93712E-18
  5765.512    2.06601E-18
  5768.065    2.07780E-18
  5770.618    2.42059E-18
  5773.171    2.86405E-18
  5775.724    3.33189E-18
  5778.277    2.68145E-18
  5780.830    2.53987E-18
  5783.383    2.99207E-18
  5785.936    2.69780E-18
  5788.489    2.43385E-18
  5791.042    2.46897E-18
  5793.595    3.01858E-18
  5796.148    3.52441E-18
  5798.701    2.29374E-18
  5801.254    2.44940E-18
  5803.807    3.49080E-18
  5806.360    2.61950E-18
  5808.913    2.62679E-18
  5811.466    3.15814E-18
  5814.019    2.76186E-18
  5816.572    2.11004E-18
  5819.125    2.78941E-18
  5821.678    3.19489E-18
  5824.231    2.45359E-18
  5826.784    3.39604E-18
  5829.337    3.39338E-18
  5831.890    1.86650E-18
  5834.443    2.05397E-18
  5836.996    2.95929E-18
  5839.549    3.04485E-18
  5842.102    2.65545E-18
  5844.655    3.35553E-18
  5847.208    3.72865E-18
  5849.761    3.09575E-18
  5852.314    3.29883E-18
  5854.867    3.76831E-18
  5857.420    3.41267E-18
  5859.973    3.23271E-18
  5862.526    4.05443E-18
  5865.079    4.33425E-18
  5867.632    4.45066E-18
  5870.185    2.97589E-18
  5872.738    3.41776E-18
  5875.291    2.60781E-18
  5877.844    3.65349E-18
  5880.397    2.55691E-18
  5882.950    4.36381E-18
  5885.503    2.26975E-18
  5888.056    5.16639E-19
  5890.609    1.41294E-18
  5893.162    6.75117E-19
  5895.715    1.93814E-18
  5898.268    6.90658E-19
  5900.821    1.15049E-18
  5903.374    1.96084E-18
  5905.927    1.33283E-18
  5908.480    2.15595E-18
  5911.033    1.99136E-18
  5913.586    2.69277E-18
  5916.139    3.22419E-18
  5918.692    3.47667E-18
  5921.245    3.14749E-18
  5923.798    4.07799E-18
  5926.351    4.08589E-18
  5928.904    3.22796E-18
  5931.457    3.76743E-18
  5934.010    3.08543E-18
  5936.563    2.65269E-18
  5939.116    2.94831E-18
  5941.669    2.67673E-18
  5944.222    2.93660E-18
  5946.775    1.62096E-19
  5949.328    7.22534E-19
  5951.881    2.51018E-18
  5954.434    2.11612E-18
  5956.987    2.90918E-18
  5959.540    2.90073E-18
  5962.093    3.34615E-18
  5964.646    2.72465E-18
  5967.199    3.98731E-18
  5969.752    4.65820E-18
  5972.305    3.31815E-18
  5974.858    4.26307E-18
  5977.411    4.56853E-18
  5979.964    3.99250E-18
  5982.517    4.07192E-18
  5985.070    4.26321E-18
  5987.623    5.00699E-18
  5990.176    5.20299E-18
  5992.729    5.58397E-18
  5995.282    4.96017E-18
  5997.835    4.24010E-18
  6000.388    4.54535E-18
  6002.941    4.68625E-18
  6005.494    4.93797E-18
  6008.047    4.38727E-18
  6010.600    4.45504E-18
  6013.153    4.31013E-18
  6015.706    4.51030E-18
  6018.259    5.04453E-18
  6020.812    4.92139E-18
  6023.365    4.68542E-18
  6025.918    4.84816E-18
  6028.471    5.18912E-18
  6031.024    5.07250E-18
  6033.577    4.68976E-18
  6036.130    4.36912E-18
  6038.683    4.79346E-18
  6041.236    4.08380E-18
  6043.789    5.01965E-18
  6046.342    4.65321E-18
  6048.895    4.67169E-18
  6051.448    4.86743E-18
  6054.001    4.37584E-18
  6056.554    4.56320E-18
  6059.107    5.20929E-18
  6061.660    5.32158E-18
  6064.213    4.65270E-18
  6066.766    4.85538E-18
  6069.319    4.80460E-18
  6071.872    4.33120E-18
  6074.425    4.43850E-18
  6076.978    5.03182E-18
  6079.531    4.56297E-18
  6082.084    4.24600E-18
  6084.637    4.67485E-18
  6087.190    4.31733E-18
  6089.743    4.98305E-18
  6092.296    4.82817E-18
  6094.849    4.83256E-18
  6097.402    3.92957E-18
  6099.955    4.40790E-18
  6102.508    4.32664E-18
  6105.061    4.61865E-18
  6107.614    4.91339E-18
  6110.167    4.99946E-18
  6112.720    4.98317E-18
  6115.273    4.39533E-18
  6117.826    4.91280E-18
  6120.379    5.10322E-18
  6122.932    4.77353E-18
  6125.485    5.43457E-18
  6128.038    4.77527E-18
  6130.591    4.54808E-18
  6133.144    4.69084E-18
  6135.697    5.26848E-18
  6138.250    4.36310E-18
  6140.803    4.25533E-18
  6143.356    4.42600E-18
  6145.909    4.97898E-18
  6148.462    4.82933E-18
  6151.015    3.76722E-18
  6153.568    4.03937E-18
  6156.121    4.26004E-18
  6158.674    5.60397E-18
  6161.227    4.70671E-18
  6163.780    4.00748E-18
  6166.333    4.49366E-18
  6168.886    5.42339E-18
  6171.439    5.06789E-18
  6173.992    4.20650E-18
  6176.545    4.63638E-18
  6179.098    4.51463E-18
  6181.651    4.55885E-18
  6184.204    4.76380E-18
  6186.757    4.94656E-18
  6189.310    4.98971E-18
  6191.863    4.31668E-18
  6194.416    4.82671E-18
  6196.969    5.00517E-18
  6199.522    4.91892E-18
  6202.075    4.36035E-18
  6204.628    4.85056E-18
  6207.181    4.06273E-18
  6209.734    4.12078E-18
  6212.287    4.32776E-18
  6214.840    4.99905E-18
  6217.393    4.66338E-18
  6219.946    4.63225E-18
  6222.499    5.11819E-18
  6225.052    4.65304E-18
  6227.605    4.29703E-18
  6230.158    3.90186E-18
  6232.711    4.19922E-18
  6235.264    4.53662E-18
  6237.817    4.66611E-18
  6240.370    5.29287E-18
  6242.923    5.16153E-18
  6245.476    4.94126E-18
  6248.029    4.23820E-18
  6250.582    5.34091E-18
  6253.135    4.57787E-18
  6255.688    4.19261E-18
  6258.241    4.44276E-18
  6260.794    5.08736E-18
  6263.347    4.33404E-18
  6265.900    4.63143E-18
  6268.453    3.97202E-18
  6271.006    4.95818E-18
  6273.559    5.36482E-18
  6276.112    4.56208E-18
  6278.665    4.31686E-18
  6281.218    4.18378E-18
  6283.771    4.26157E-18
  6286.324    4.07546E-18
  6288.877    3.78160E-18
  6291.430    4.23144E-18
  6293.983    5.10375E-18
  6296.536    4.54932E-18
  6299.089    4.41749E-18
  6301.642    4.78050E-18
  6304.195    3.87443E-18
  6306.748    4.47224E-18
  6309.301    5.48925E-18
  6311.854    4.49685E-18
  6314.407    4.79455E-18
  6316.960    4.95541E-18
  6319.513    5.14339E-18
  6322.066    5.83197E-18
  6324.619    4.76393E-18
  6327.172    5.50599E-18
  6329.725    5.75575E-18
  6332.278    5.14113E-18
  6334.831    4.60426E-18
  6337.384    5.06940E-18
  6339.937    4.80233E-18
  6342.490    5.32776E-18
  6345.043    5.42365E-18
  6347.596    4.72997E-18
  6350.149    5.24728E-18
  6352.702    4.25865E-18
  6355.255    4.83801E-18
  6357.808    6.20508E-18
  6360.361    3.87303E-18
  6362.914    5.72190E-18
  6365.467    5.46553E-18
  6368.020    6.63914E-18
  6370.573    5.08378E-18
  6373.126    4.78458E-18
  6375.679    5.17733E-18
  6378.232    5.19876E-18
  6380.785    5.93905E-18
  6383.338    5.98188E-18
  6385.891    4.21515E-18
  6388.444    7.04664E-18
  6390.997    5.12603E-18
  6393.550    5.03223E-18
  6396.103    5.03490E-18
  6398.656    5.56174E-18
  6401.209    5.18324E-18
  6403.762    4.61842E-18
  6406.315    4.75541E-18
  6408.868    5.38775E-18
  6411.421    4.96329E-18
  6413.974    4.63419E-18
  6416.527    4.38724E-18
  6419.080    5.19779E-18
  6421.633    4.51645E-18
  6424.186    4.71193E-18
  6426.739    5.81431E-18
  6429.292    5.19288E-18
  6431.845    4.92424E-18
  6434.398    4.73685E-18
  6436.951    4.51923E-18
  6439.504    4.74124E-18
  6442.057    4.56689E-18
  6444.610    4.35360E-18
  6447.163    4.01180E-18
  6449.716    3.60389E-18
  6452.269    3.72304E-18
  6454.822    3.46005E-18
  6457.375    3.59127E-18
  6459.928    3.63906E-18
  6462.481    3.96388E-18
  6465.034    4.84575E-18
  6467.587    5.81276E-18
  6470.140    4.67690E-18
  6472.693    5.72969E-18
  6475.246    5.74207E-18
  6477.799    6.14008E-18
  6480.352    5.29983E-18
  6482.905    5.30249E-18
  6485.458    5.41835E-18
  6488.011    5.68834E-18
  6490.564    4.92390E-18
  6493.117    5.89237E-18
  6495.670    6.29885E-18
  6498.223    7.02128E-18
  6500.776    5.70691E-18
  6503.329    5.72355E-18
  6505.882    5.68953E-18
  6508.435    4.42981E-18
  6510.988    5.65407E-18
  6513.541    5.23712E-18
  6516.094    5.41535E-18
  6518.647    5.54748E-18
  6521.200    6.72899E-18
  6523.753    5.21630E-18
  6526.306    6.53529E-18
  6528.859    5.64747E-18
  6531.412    5.37321E-18
  6533.965    5.80360E-18
  6536.518    6.49558E-18
  6539.071    6.42611E-18
  6541.624    6.70432E-18
  6544.177    6.12219E-18
  6546.730    5.52324E-18
  6549.283    4.15831E-18
  6551.836    5.22258E-18
  6554.389    5.63138E-18
  6556.942    5.68403E-18
  6559.495    5.76488E-18
  6562.048    5.69741E-18
  6564.601    5.16504E-18
  6567.154    3.82353E-18
  6569.707    5.91824E-18
  6572.260    5.44988E-18
  6574.813    4.32963E-18
  6577.366    5.98117E-18
  6579.919    5.13041E-18
  6582.472    5.31403E-18
  6585.025    5.26254E-18
  6587.578    5.12610E-18
  6590.131    5.07817E-18
  6592.684    5.32556E-18
  6595.237    5.84263E-18
  6597.790    6.21887E-18
  6600.343    6.07203E-18
  6602.896    5.30252E-18
  6605.449    5.55651E-18
  6608.002    5.36196E-18
  6610.555    5.41455E-18
  6613.108    5.34170E-18
  6615.661    5.53099E-18
  6618.214    5.66715E-18
  6620.767    6.30048E-18
  6623.320    6.53114E-18
  6625.873    5.95384E-18
  6628.426    6.47691E-18
  6630.979    5.92023E-18
  6633.532    6.93172E-18
  6636.085    5.72250E-18
  6638.638    6.82264E-18
  6641.191    6.74838E-18
  6643.744    5.61443E-18
  6646.297    6.46445E-18
  6648.850    6.02776E-18
  6651.403    5.64325E-18
  6653.956    6.28456E-18
  6656.509    6.48073E-18
  6659.062    5.95697E-18
  6661.615    6.28809E-18
  6664.168    6.82313E-18
  6666.721    6.30071E-18
  6669.274    6.70703E-18
  6671.827    6.80374E-18
  6674.380    6.39794E-18
  6676.933    6.65369E-18
  6679.486    6.18031E-18
  6682.039    6.26792E-18
  6684.592    5.92507E-18
  6687.145    6.43202E-18
  6689.698    5.83413E-18
  6692.251    6.26507E-18
  6694.804    6.51803E-18
  6697.357    6.60018E-18
  6699.910    6.57472E-18
  6702.463    6.55219E-18
  6705.016    6.39350E-18
  6707.569    6.81714E-18
  6710.122    6.35480E-18
  6712.675    6.31377E-18
  6715.228    6.30926E-18
  6717.781    6.32258E-18
  6720.334    6.87552E-18
  6722.887    6.59511E-18
  6725.440    6.68557E-18
  6727.993    7.07794E-18
  6730.546    6.70283E-18
  6733.099    6.45380E-18
  6735.652    5.96946E-18
  6738.205    6.74441E-18
  6740.758    6.06231E-18
  6743.311    6.79608E-18
  6745.864    6.71658E-18
  6748.417    6.86595E-18
  6750.970    7.41241E-18
  6753.523    7.17317E-18
  6756.076    6.75773E-18
  6758.629    7.63033E-18
  6761.182    7.51843E-18
  6763.735    6.97810E-18
  6766.288    6.40206E-18
  6768.841    6.96171E-18
  6771.394    6.59807E-18
  6773.947    6.77896E-18
  6776.500    7.07886E-18
  6779.053    7.42556E-18
  6781.606    6.52842E-18
  6784.159    7.62390E-18
  6786.712    6.67582E-18
  6789.265    6.50081E-18
  6791.818    5.62965E-18
  6794.371    6.53497E-18
  6796.924    6.17635E-18
  6799.477    6.65293E-18
  6802.030    6.71262E-18
  6804.583    6.98350E-18
  6807.136    6.39704E-18
  6809.689    7.07988E-18
  6812.242    7.28786E-18
  6814.795    7.44845E-18
  6817.348    7.51787E-18
  6819.901    7.13998E-18
  6822.454    6.62948E-18
  6825.007    7.71071E-18
  6827.560    6.80649E-18
  6830.113    6.76254E-18
  6832.666    7.37657E-18
  6835.219    7.11405E-18
  6837.772    7.32966E-18
  6840.325    8.29352E-18
  6842.878    7.65053E-18
  6845.431    8.06031E-18
  6847.984    7.29485E-18
  6850.537    7.25717E-18
  6853.090    7.99621E-18
  6855.643    5.84392E-18
  6858.196    6.88684E-18
  6860.749    6.75698E-18
  6863.302    6.63729E-18
  6865.855    8.26656E-18
  6868.408    7.05626E-18
  6870.961    7.52387E-18
  6873.514    7.30466E-18
  6876.067    6.13718E-18
  6878.620    6.50467E-18
  6881.173    7.93262E-18
  6883.726    7.12162E-18
  6886.279    7.83283E-18
  6888.832    6.92919E-18
  6891.385    6.33760E-18
  6893.938    7.04867E-18
  6896.491    7.85146E-18
  6899.044    6.10151E-18
  6901.597    7.42551E-18
  6904.150    6.95434E-18
  6906.703    7.12377E-18
  6909.256    7.71991E-18
  6911.809    7.52541E-18
  6914.362    8.02053E-18
  6916.915    7.56516E-18
  6919.468    8.48532E-18
  6922.021    8.85727E-18
  6924.574    7.67762E-18
  6927.127    7.63072E-18
  6929.680    8.23046E-18
  6932.233    8.05475E-18
  6934.786    8.91101E-18
  6937.339    6.85573E-18
  6939.892    8.18091E-18
  6942.445    8.05141E-18
  6944.998    8.19971E-18
  6947.551    7.10105E-18
  6950.104    7.07723E-18
  6952.657    7.00715E-18
  6955.210    7.10170E-18
  6957.763    6.69870E-18
  6960.316    6.35599E-18
  6962.869    7.44449E-18
  6965.422    6.36735E-18
  6967.975    6.55443E-18
  6970.528    7.38191E-18
  6973.081    6.98273E-18
  6975.634    6.97643E-18
  6978.187    7.25160E-18
  6980.740    7.49497E-18
  6983.293    7.26265E-18
  6985.846    7.27531E-18
  6988.399    7.34622E-18
  6990.952    7.23054E-18
  6993.505    6.38897E-18
  6996.058    6.01288E-18
  6998.611    7.27825E-18
  7001.164    5.95751E-18
  7003.717    6.75788E-18
  7006.270    6.81225E-18
  7008.823    7.11680E-18
  7011.376    6.46382E-18
  7013.929    6.94076E-18
  7016.482    7.18534E-18
  7019.035    6.58712E-18
  7021.588    6.31980E-18
  7024.141    7.11292E-18
  7026.694    7.16595E-18
  7029.247    5.98656E-18
  7031.800    6.89935E-18
  7034.353    7.48299E-18
  7036.906    7.42236E-18
  7039.459    6.95257E-18
  7042.012    7.87161E-18
  7044.565    6.52182E-18
  7047.118    6.97073E-18
  7049.671    6.41390E-18
  7052.224    7.02985E-18
  7054.777    7.06447E-18
  7057.330    6.53538E-18
  7059.883    5.58971E-18
  7062.436    6.18044E-18
  7064.989    6.39581E-18
  7067.542    6.60990E-18
  7070.095    6.64282E-18
  7072.648    6.64211E-18
  7075.201    6.81203E-18
  7077.754    7.27591E-18
  7080.307    6.12082E-18
  7082.860    6.52091E-18
  7085.413    6.69303E-18
  7087.966    6.74648E-18
  7090.519    6.72622E-18
  7093.072    7.26837E-18
  7095.625    6.76765E-18
  7098.178    6.76738E-18
  7100.731    7.14057E-18
  7103.284    7.44631E-18
  7105.837    6.97138E-18
  7108.390    7.16120E-18
  7110.943    7.22985E-18
  7113.496    6.80990E-18
  7116.049    6.40475E-18
  7118.602    6.86239E-18
  7121.155    7.05159E-18
  7123.708    6.88467E-18
  7126.261    6.75815E-18
  7128.814    6.97464E-18
  7131.367    7.40688E-18
  7133.920    7.68613E-18
  7136.473    6.47398E-18
  7139.026    6.61768E-18
  7141.579    6.75400E-18
  7144.132    7.05675E-18
  7146.685    7.30646E-18
  7149.238    7.52581E-18
  7151.791    7.39509E-18
  7154.344    7.59479E-18
  7156.897    7.82689E-18
  7159.450    7.30113E-18
  7162.003    7.12417E-18
  7164.556    7.59726E-18
  7167.109    7.25723E-18
  7169.662    6.53947E-18
  7172.215    6.87910E-18
  7174.768    7.50298E-18
  7177.321    7.12996E-18
  7179.874    6.42020E-18
  7182.427    7.48118E-18
  7184.980    7.55157E-18
  7187.533    7.33270E-18
  7190.086    8.17379E-18
  7192.639    7.63180E-18
  7195.192    7.78124E-18
  7197.745    7.37445E-18
  7200.298    7.81713E-18
  7202.851    6.87608E-18
  7205.404    7.04727E-18
  7207.957    7.23250E-18
  7210.510    6.85195E-18
  7213.063    7.37928E-18
  7215.616    7.27851E-18
  7218.169    7.06177E-18
  7220.722    7.30208E-18
  7223.275    7.38408E-18
  7225.828    7.49507E-18
  7228.381    7.12023E-18
  7230.934    6.80898E-18
  7233.487    7.63560E-18
  7236.040    6.89730E-18
  7238.593    5.56746E-18
  7241.146    6.44853E-18
  7243.699    7.21197E-18
  7246.252    6.88779E-18
  7248.805    5.30845E-18
  7251.358    7.21191E-18
  7253.911    6.43735E-18
  7256.464    6.01033E-18
  7259.017    6.27721E-18
  7261.570    5.98367E-18
  7264.123    6.72733E-18
  7266.676    7.50461E-18
  7269.229    6.77441E-18
  7271.782    5.65271E-18
  7274.335    6.44740E-18
  7276.888    5.57436E-18
  7279.441    6.07940E-18
  7281.994    5.07031E-18
  7284.547    6.39073E-18
  7287.100    4.22959E-18
  7289.653    4.40440E-18
  7292.206    5.36332E-18
  7294.759    5.77697E-18
  7297.312    5.37191E-18
  7299.865    6.48783E-18
  7302.418    6.29290E-18
  7304.971    5.18693E-18
  7307.524    7.56062E-18
  7310.077    7.59750E-18
  7312.630    6.66627E-18
  7315.183    6.54181E-18
  7317.736    6.03929E-18
  7320.289    6.13669E-18
  7322.842    6.48333E-18
  7325.395    6.78318E-18
  7327.948    6.55664E-18
  7330.501    6.58985E-18
  7333.054    6.18280E-18
  7335.607    6.94499E-18
  7338.160    7.25552E-18
  7340.713    6.31414E-18
  7343.266    7.75549E-18
  7345.819    6.67692E-18
  7348.372    7.34971E-18
  7350.925    7.01949E-18
  7353.478    7.48726E-18
  7356.031    7.38901E-18
  7358.584    7.96602E-18
  7361.137    8.82400E-18
  7363.690    7.49267E-18
  7366.243    7.83552E-18
  7368.796    7.61099E-18
  7371.349    6.20539E-18
  7373.902    6.42022E-18
  7376.455    7.78444E-18
  7379.008    6.77758E-18
  7381.561    6.31920E-18
  7384.114    7.03371E-18
  7386.667    6.62760E-18
  7389.220    7.39901E-18
  7391.773    7.45384E-18
  7394.326    7.00853E-18
  7396.879    6.93650E-18
  7399.432    7.51176E-18
  7401.985    7.16492E-18
  7404.538    8.59310E-18
  7407.091    7.60992E-18
  7409.644    7.55316E-18
  7412.197    7.36271E-18
  7414.750    7.42949E-18
  7417.303    7.26878E-18
  7419.856    6.57667E-18
  7422.409    8.70834E-18
  7424.962    8.04769E-18
  7427.515    6.44561E-18
  7430.068    8.33968E-18
  7432.621    7.82786E-18
  7435.174    6.82638E-18
  7437.727    6.88453E-18
  7440.280    7.72190E-18
  7442.833    7.27888E-18
  7445.386    6.10075E-18
  7447.939    7.48385E-18
  7450.492    7.01457E-18
  7453.045    5.47999E-18
  7455.598    7.73047E-18
  7458.151    7.20486E-18
