#|wavelength|    flux     |
#|  float   |    float    |
  5500.000    9.88989E-18
  5502.553    6.02629E-18
  5505.106    6.01004E-18
  5507.659   -9.00614E-19
  5510.212   -7.44950E-19
  5512.765    3.46836E-19
  5515.318    1.01269E-17
  5517.871   -3.14522E-20
  5520.424    1.21363E-18
  5522.977   -1.32050E-18
  5525.530    2.31569E-18
  5528.083    3.86784E-18
  5530.636   -6.50384E-19
  5533.189    1.15065E-19
  5535.742    2.42118E-18
  5538.295    2.73209E-18
  5540.848    2.20626E-18
  5543.401    8.24287E-19
  5545.954    2.35942E-18
  5548.507    4.45546E-19
  5551.060    1.65090E-18
  5553.613    1.35895E-18
  5556.166    1.73975E-18
  5558.719    1.10503E-18
  5561.272    1.86811E-18
  5563.825    2.50254E-18
  5566.378    2.21209E-18
  5568.931    2.54192E-18
  5571.484    3.49146E-18
  5574.037    5.11846E-18
  5576.590    5.85735E-19
  5579.143    2.31372E-18
  5581.696    1.75838E-18
  5584.249    1.83748E-18
  5586.802    1.08605E-18
  5589.355    2.49389E-18
  5591.908    2.38505E-18
  5594.461    3.50410E-18
  5597.014    1.17102E-18
  5599.567    1.50345E-18
  5602.120    1.61580E-18
  5604.673    2.40700E-18
  5607.226    1.18037E-18
  5609.779    1.82640E-18
  5612.332    1.23953E-18
  5614.885    1.42108E-18
  5617.438    1.91889E-18
  5619.991    1.28536E-18
  5622.544    3.22786E-18
  5625.097    1.59988E-18
  5627.650    1.01160E-18
  5630.203    1.85628E-18
  5632.756    1.28159E-18
  5635.309    1.34840E-18
  5637.862    1.82948E-18
  5640.415    2.26539E-18
  5642.968    1.33978E-18
  5645.521    1.49631E-18
  5648.074    1.48902E-18
  5650.627    1.39745E-18
  5653.180    2.14272E-18
  5655.733    1.86265E-18
  5658.286    1.89867E-18
  5660.839    1.71893E-18
  5663.392    1.40972E-18
  5665.945    1.31066E-18
  5668.498    2.00218E-18
  5671.051    1.47475E-18
  5673.604    1.90254E-18
  5676.157    1.52700E-18
  5678.710    1.51306E-18
  5681.263    1.21243E-18
  5683.816    2.06868E-18
  5686.369    2.03927E-18
  5688.922    1.61014E-18
  5691.475    8.22656E-19
  5694.028    1.45505E-18
  5696.581    1.06747E-18
  5699.134    1.38021E-18
  5701.687    1.43831E-18
  5704.240    1.96891E-18
  5706.793    1.36268E-18
  5709.346    2.40583E-18
  5711.899    2.14943E-18
  5714.452    1.80520E-18
  5717.005    1.38977E-18
  5719.558    2.02218E-18
  5722.111    1.92139E-18
  5724.664    1.63906E-18
  5727.217    1.56874E-18
  5729.770    1.90454E-18
  5732.323    1.60945E-18
  5734.876    1.96608E-18
  5737.429    1.74833E-18
  5739.982    1.35828E-18
  5742.535    2.11713E-18
  5745.088    1.70420E-18
  5747.641    2.10569E-18
  5750.194    2.32401E-18
  5752.747    1.39069E-18
  5755.300    1.39774E-18
  5757.853    1.99465E-18
  5760.406    1.74644E-18
  5762.959    1.54299E-18
  5765.512    1.45662E-18
  5768.065    1.43253E-18
  5770.618    1.25016E-18
  5773.171    2.10773E-18
  5775.724    1.91966E-18
  5778.277    1.37151E-18
  5780.830    1.98869E-18
  5783.383    1.91469E-18
  5785.936    1.89776E-18
  5788.489    1.82916E-18
  5791.042    1.63692E-18
  5793.595    2.09915E-18
  5796.148    6.12327E-19
  5798.701    1.07773E-18
  5801.254    2.01497E-18
  5803.807    1.17347E-18
  5806.360    1.81829E-18
  5808.913    1.66980E-18
  5811.466    1.09495E-18
  5814.019    1.13138E-18
  5816.572    1.69500E-18
  5819.125    1.69395E-18
  5821.678    1.49139E-18
  5824.231    1.44821E-18
  5826.784    1.94772E-18
  5829.337    2.04331E-18
  5831.890    1.30393E-18
  5834.443    2.19429E-18
  5836.996    1.64664E-18
  5839.549    1.45136E-18
  5842.102    8.54407E-19
  5844.655    1.19261E-18
  5847.208    1.57639E-18
  5849.761    1.84254E-18
  5852.314    1.38246E-18
  5854.867    1.85880E-18
  5857.420    2.22124E-18
  5859.973    2.04180E-18
  5862.526    1.78897E-18
  5865.079    1.89861E-18
  5867.632    2.63293E-18
  5870.185    2.15502E-18
  5872.738    2.19619E-18
  5875.291    1.53691E-18
  5877.844    1.82492E-18
  5880.397    1.59689E-18
  5882.950    1.25591E-18
  5885.503    1.48561E-18
  5888.056    1.88025E-18
  5890.609    1.38491E-18
  5893.162    1.25409E-18
  5895.715    1.65012E-18
  5898.268    1.95699E-18
  5900.821    2.55703E-18
  5903.374    1.52796E-18
  5905.927    1.45621E-18
  5908.480    6.75165E-19
  5911.033    1.08949E-18
  5913.586    1.91462E-18
  5916.139    6.55516E-19
  5918.692    1.20680E-18
  5921.245    1.18908E-18
  5923.798    2.29799E-18
  5926.351    1.03579E-18
  5928.904    1.71065E-18
  5931.457    1.80210E-18
  5934.010    1.66262E-18
  5936.563    1.53091E-18
  5939.116    1.82211E-18
  5941.669    2.12416E-18
  5944.222    1.71360E-18
  5946.775    1.84199E-18
  5949.328    1.21288E-18
  5951.881    1.72581E-18
  5954.434    2.30251E-18
  5956.987    1.59127E-18
  5959.540    2.18099E-18
  5962.093    1.60583E-18
  5964.646    1.52119E-18
  5967.199    1.69934E-18
  5969.752    1.68538E-18
  5972.305    1.68719E-18
  5974.858    1.06099E-18
  5977.411    1.34261E-18
  5979.964    1.28316E-18
  5982.517    1.33579E-18
  5985.070    2.99110E-19
  5987.623    9.13851E-19
  5990.176    7.37871E-19
  5992.729    1.23623E-18
  5995.282    1.24744E-18
  5997.835    1.31823E-18
  6000.388    1.60281E-18
  6002.941    1.34255E-18
  6005.494    5.30873E-19
  6008.047    1.86437E-19
  6010.600   -6.43635E-20
  6013.153    4.76229E-20
  6015.706    1.30572E-18
  6018.259    1.18531E-18
  6020.812    1.90064E-18
  6023.365    1.04031E-18
  6025.918    2.18804E-18
  6028.471    1.92921E-18
  6031.024    1.24536E-18
  6033.577    1.21379E-18
  6036.130    1.09979E-18
  6038.683    1.62069E-18
  6041.236    2.07829E-18
  6043.789    1.90662E-18
  6046.342    1.92318E-18
  6048.895    1.59503E-18
  6051.448    1.41172E-18
  6054.001    1.82009E-18
  6056.554    1.76689E-18
  6059.107    1.95616E-18
  6061.660    1.20000E-18
  6064.213    1.70894E-18
  6066.766    1.44221E-18
  6069.319    1.16039E-18
  6071.872    2.05731E-18
  6074.425    1.52891E-18
  6076.978    1.72648E-18
  6079.531    1.42441E-18
  6082.084    2.06638E-18
  6084.637    1.60509E-18
  6087.190    1.54993E-18
  6089.743    2.23978E-18
  6092.296    1.58649E-18
  6094.849    1.31153E-18
  6097.402    1.62528E-18
  6099.955    1.57471E-18
  6102.508    1.66363E-18
  6105.061    1.43527E-18
  6107.614    1.58926E-18
  6110.167    2.15790E-18
  6112.720    1.18616E-18
  6115.273    1.67511E-18
  6117.826    1.95873E-18
  6120.379    2.38764E-18
  6122.932    1.71815E-18
  6125.485    2.00750E-18
  6128.038    1.45758E-18
  6130.591    9.41237E-19
  6133.144    1.81446E-18
  6135.697    1.65256E-18
  6138.250    1.60507E-18
  6140.803    1.39720E-18
  6143.356    1.93996E-18
  6145.909    1.77532E-18
  6148.462    1.71091E-18
  6151.015    2.15774E-18
  6153.568    1.85075E-18
  6156.121    1.98642E-18
  6158.674    1.69705E-18
  6161.227    1.48834E-18
  6163.780    1.66386E-18
  6166.333    2.00183E-18
  6168.886    1.49671E-18
  6171.439    1.49461E-18
  6173.992    1.65646E-18
  6176.545    1.69126E-18
  6179.098    1.75146E-18
  6181.651    1.87382E-18
  6184.204    1.09641E-18
  6186.757    1.76569E-18
  6189.310    1.38886E-18
  6191.863    1.70070E-18
  6194.416    1.12472E-18
  6196.969    1.76376E-18
  6199.522    2.03608E-18
  6202.075    1.59095E-18
  6204.628    1.62730E-18
  6207.181    1.94648E-18
  6209.734    1.59722E-18
  6212.287    1.65703E-18
  6214.840    1.40773E-18
  6217.393    1.75806E-18
  6219.946    2.25720E-18
  6222.499    2.09212E-18
  6225.052    2.02788E-18
  6227.605    1.46117E-18
  6230.158    1.50671E-18
  6232.711    2.03527E-18
  6235.264    2.45070E-18
  6237.817    1.47278E-18
  6240.370    1.34526E-18
  6242.923    2.11714E-18
  6245.476    1.59606E-18
  6248.029    1.41884E-18
  6250.582    1.95624E-18
  6253.135    1.67684E-18
  6255.688    1.38480E-18
  6258.241    1.67842E-18
  6260.794    1.87960E-18
  6263.347    1.57664E-18
  6265.900    1.95037E-18
  6268.453    1.50453E-18
  6271.006    1.43341E-18
  6273.559    2.18223E-18
  6276.112    1.70760E-18
  6278.665    1.50192E-18
  6281.218    1.12929E-18
  6283.771    1.34335E-18
  6286.324    1.94761E-18
  6288.877    1.95668E-18
  6291.430    1.42335E-18
  6293.983    2.20358E-18
  6296.536    2.16190E-18
  6299.089    9.83767E-19
  6301.642    1.53288E-18
  6304.195    1.22492E-18
  6306.748    1.81839E-18
  6309.301    1.58275E-18
  6311.854    1.41753E-18
  6314.407    1.90199E-18
  6316.960    1.84190E-18
  6319.513    1.68589E-18
  6322.066    1.93202E-18
  6324.619    1.98366E-18
  6327.172    2.57664E-18
  6329.725    1.88811E-18
  6332.278    1.71985E-18
  6334.831    1.99503E-18
  6337.384    1.38195E-18
  6339.937    1.99985E-18
  6342.490    1.94077E-18
  6345.043    1.78505E-18
  6347.596    1.64559E-18
  6350.149    1.83541E-18
  6352.702    1.92603E-18
  6355.255    2.04068E-18
  6357.808    1.73346E-18
  6360.361    1.77623E-18
  6362.914    1.38724E-18
  6365.467    1.77362E-18
  6368.020    2.05494E-18
  6370.573    1.71223E-18
  6373.126    2.00113E-18
  6375.679    1.53693E-18
  6378.232    1.16434E-18
  6380.785    1.45196E-18
  6383.338    1.24373E-18
  6385.891    1.81100E-18
  6388.444    1.65069E-18
  6390.997    1.47138E-18
  6393.550    1.84914E-18
  6396.103    1.77274E-18
  6398.656    1.14930E-18
  6401.209    1.65481E-18
  6403.762    2.22717E-18
  6406.315    1.46022E-18
  6408.868    1.80004E-18
  6411.421    2.24882E-18
  6413.974    1.97991E-18
  6416.527    1.51023E-18
  6419.080    2.06701E-18
  6421.633    1.81970E-18
  6424.186    2.04121E-18
  6426.739    1.53788E-18
  6429.292    2.00498E-18
  6431.845    1.63656E-18
  6434.398    1.38623E-18
  6436.951    1.38468E-18
  6439.504    2.17852E-18
  6442.057    1.55372E-18
  6444.610    2.01584E-18
  6447.163    2.38237E-18
  6449.716    2.13240E-18
  6452.269    1.75078E-18
  6454.822    1.61880E-18
  6457.375    1.83377E-18
  6459.928    1.84573E-18
  6462.481    1.81911E-18
  6465.034    1.49968E-18
  6467.587    1.80057E-18
  6470.140    1.92948E-18
  6472.693    1.12427E-18
  6475.246    2.26371E-18
  6477.799    1.64963E-18
  6480.352    1.80260E-18
  6482.905    1.77840E-18
  6485.458    1.66296E-18
  6488.011    1.94300E-18
  6490.564    1.69587E-18
  6493.117    1.62438E-18
  6495.670    1.78591E-18
  6498.223    1.95645E-18
  6500.776    1.34806E-18
  6503.329    1.79638E-18
  6505.882    1.65927E-18
  6508.435    1.31736E-18
  6510.988    1.48243E-18
  6513.541    1.46645E-18
  6516.094    1.30006E-18
  6518.647    1.09419E-18
  6521.200    1.27646E-18
  6523.753    6.32561E-19
  6526.306    6.14835E-19
  6528.859    9.64198E-19
  6531.412    1.12564E-18
  6533.965    1.94040E-18
  6536.518    1.48938E-18
  6539.071    1.14687E-18
  6541.624    1.69507E-18
  6544.177    1.45918E-18
  6546.730    1.84507E-18
  6549.283    7.91960E-19
  6551.836    2.80930E-19
  6554.389    1.38167E-19
  6556.942    3.32935E-19
  6559.495    5.33446E-19
  6562.048    7.48838E-19
  6564.601    1.29273E-18
  6567.154    1.69382E-18
  6569.707    1.47194E-18
  6572.260    1.62063E-18
  6574.813    1.90361E-18
  6577.366    2.16047E-18
  6579.919    1.71419E-18
  6582.472    1.29506E-18
  6585.025    1.61799E-18
  6587.578    1.86192E-18
  6590.131    2.01101E-18
  6592.684    2.08165E-18
  6595.237    1.54735E-18
  6597.790    1.87838E-18
  6600.343    1.90726E-18
  6602.896    1.79635E-18
  6605.449    1.93107E-18
  6608.002    1.68127E-18
  6610.555    1.23689E-18
  6613.108    2.14316E-18
  6615.661    1.72333E-18
  6618.214    1.42883E-18
  6620.767    1.38299E-18
  6623.320    1.65639E-18
  6625.873    1.56280E-18
  6628.426    2.22680E-18
  6630.979    1.59684E-18
  6633.532    1.49466E-18
  6636.085    1.77994E-18
  6638.638    1.55767E-18
  6641.191    1.83850E-18
  6643.744    1.97761E-18
  6646.297    1.27601E-18
  6648.850    1.73787E-18
  6651.403    1.99347E-18
  6653.956    1.93969E-18
  6656.509    1.60019E-18
  6659.062    2.03773E-18
  6661.615    1.86250E-18
  6664.168    1.43184E-18
  6666.721    1.81447E-18
  6669.274    2.00310E-18
  6671.827    2.25150E-18
  6674.380    1.89603E-18
  6676.933    2.32807E-18
  6679.486    1.54822E-18
  6682.039    1.88646E-18
  6684.592    1.73903E-18
  6687.145    1.61831E-18
  6689.698    1.79909E-18
  6692.251    2.01524E-18
  6694.804    1.71800E-18
  6697.357    2.12960E-18
  6699.910    2.11384E-18
  6702.463    2.01769E-18
  6705.016    2.09337E-18
  6707.569    2.20446E-18
  6710.122    1.72454E-18
  6712.675    2.36468E-18
  6715.228    2.03076E-18
  6717.781    1.98760E-18
  6720.334    2.05578E-18
  6722.887    1.97077E-18
  6725.440    1.87840E-18
  6727.993    1.51115E-18
  6730.546    1.41449E-18
  6733.099    2.00808E-18
  6735.652    2.12954E-18
  6738.205    1.95565E-18
  6740.758    2.33542E-18
  6743.311    2.04755E-18
  6745.864    1.47994E-18
  6748.417    1.77329E-18
  6750.970    1.97152E-18
  6753.523    1.79936E-18
  6756.076    1.78805E-18
  6758.629    2.13789E-18
  6761.182    1.63428E-18
  6763.735    1.64800E-18
  6766.288    1.42476E-18
  6768.841    1.42892E-18
  6771.394    1.69368E-18
  6773.947    2.23397E-18
  6776.500    1.77350E-18
  6779.053    1.51610E-18
  6781.606    1.72318E-18
  6784.159    1.77490E-18
  6786.712    1.80510E-18
  6789.265    1.50731E-18
  6791.818    1.52545E-18
  6794.371    1.77426E-18
  6796.924    2.10191E-18
  6799.477    1.94488E-18
  6802.030    1.68728E-18
  6804.583    1.59037E-18
  6807.136    1.86888E-18
  6809.689    1.76559E-18
  6812.242    1.86621E-18
  6814.795    1.52291E-18
  6817.348    1.56721E-18
  6819.901    1.80428E-18
  6822.454    1.84888E-18
  6825.007    1.16465E-18
  6827.560    1.47230E-18
  6830.113    1.69034E-18
  6832.666    1.36481E-18
  6835.219    1.60900E-18
  6837.772    1.95736E-18
  6840.325    1.64295E-18
  6842.878    1.83943E-18
  6845.431    1.71689E-18
  6847.984    2.14982E-18
  6850.537    1.66921E-18
  6853.090    1.34497E-18
  6855.643    8.50496E-19
  6858.196    1.66314E-18
  6860.749    1.61500E-18
  6863.302    2.20021E-18
  6865.855    2.06777E-18
  6868.408    1.75353E-18
  6870.961    1.39637E-18
  6873.514    1.32868E-18
  6876.067    2.37131E-18
  6878.620    1.29419E-18
  6881.173    1.72761E-18
  6883.726    1.70374E-18
  6886.279    1.85884E-18
  6888.832    1.71455E-18
  6891.385    1.61517E-18
  6893.938    2.22408E-18
  6896.491    1.45876E-18
  6899.044    1.75282E-18
  6901.597    1.53909E-18
  6904.150    1.49287E-18
  6906.703    2.40723E-18
  6909.256    2.05911E-18
  6911.809    1.29899E-18
  6914.362    1.43933E-18
  6916.915    1.80444E-18
  6919.468    2.09122E-18
  6922.021    1.28471E-18
  6924.574    2.14731E-18
  6927.127    1.34084E-18
  6929.680    1.91861E-18
  6932.233    1.42019E-18
  6934.786    1.42125E-18
  6937.339    2.29519E-18
  6939.892    1.54616E-18
  6942.445    1.54548E-18
  6944.998    1.48976E-18
  6947.551    1.01286E-18
  6950.104    1.41134E-18
  6952.657    1.46707E-18
  6955.210    1.51921E-18
  6957.763    1.48985E-18
  6960.316    1.91762E-18
  6962.869    1.63619E-18
  6965.422    1.34719E-18
  6967.975    1.64790E-18
  6970.528    1.57139E-18
  6973.081    1.34275E-18
  6975.634    1.42565E-18
  6978.187    1.68505E-18
  6980.740    1.92259E-18
  6983.293    2.03735E-18
  6985.846    1.83858E-18
  6988.399    1.13969E-18
  6990.952    1.53135E-18
  6993.505    1.63809E-18
  6996.058    1.60179E-18
  6998.611    1.51659E-18
  7001.164    1.75338E-18
  7003.717    1.81217E-18
  7006.270    2.09297E-18
  7008.823    1.49966E-18
  7011.376    1.23312E-18
  7013.929    1.74015E-18
  7016.482    1.48470E-18
  7019.035    1.66698E-18
  7021.588    1.96295E-18
  7024.141    1.76075E-18
  7026.694    1.80556E-18
  7029.247    1.85394E-18
  7031.800    1.52042E-18
  7034.353    1.38857E-18
  7036.906    1.23954E-18
  7039.459    1.16810E-18
  7042.012    7.72951E-19
  7044.565    3.88820E-19
  7047.118    4.15854E-19
  7049.671    6.94468E-19
  7052.224    2.25616E-19
  7054.777    5.13874E-19
  7057.330    3.99129E-19
  7059.883    5.09008E-19
  7062.436    4.67462E-19
  7064.989    1.35834E-20
  7067.542    1.61484E-19
  7070.095   -1.90930E-20
  7072.648   -7.64017E-20
  7075.201    5.89197E-19
  7077.754    1.51767E-18
  7080.307    1.93886E-18
  7082.860    2.19581E-18
  7085.413    1.87735E-18
  7087.966    1.96945E-18
  7090.519    1.82234E-18
  7093.072    2.04309E-18
  7095.625    1.46805E-18
  7098.178    1.64298E-18
  7100.731    1.24596E-18
  7103.284    1.38020E-18
  7105.837    1.71849E-18
  7108.390    2.02388E-18
  7110.943    1.90743E-18
  7113.496    1.32603E-18
  7116.049    1.28490E-18
  7118.602    1.51781E-18
  7121.155    1.33289E-18
  7123.708    1.77428E-18
  7126.261    1.82707E-18
  7128.814    1.88255E-18
  7131.367    1.56190E-18
  7133.920    2.01336E-18
  7136.473    1.47161E-18
  7139.026    1.45415E-18
  7141.579    1.10025E-18
  7144.132    1.66628E-18
  7146.685    8.47379E-19
  7149.238    1.60942E-18
  7151.791    1.87493E-18
  7154.344    1.39803E-18
  7156.897    1.63933E-18
  7159.450    1.73581E-18
  7162.003    1.63948E-18
  7164.556    1.68943E-18
  7167.109    2.04775E-18
  7169.662    1.26515E-18
  7172.215    1.78259E-18
  7174.768    1.54747E-18
  7177.321    8.66237E-19
  7179.874    1.43143E-18
  7182.427    1.15524E-18
  7184.980    1.01742E-18
  7187.533    1.26032E-18
  7190.086    1.59843E-18
  7192.639    1.18450E-18
  7195.192    1.14286E-18
  7197.745    1.14942E-18
  7200.298    1.89656E-18
  7202.851    1.45960E-18
  7205.404    1.74824E-18
  7207.957    2.05590E-18
  7210.510    1.72568E-18
  7213.063    1.85811E-18
  7215.616    2.26425E-18
  7218.169    2.17454E-18
  7220.722    1.34615E-18
  7223.275    1.78309E-18
  7225.828    1.15244E-18
  7228.381    1.55436E-18
  7230.934    1.45335E-18
  7233.487    1.78441E-18
  7236.040    1.71253E-18
  7238.593    2.05841E-18
  7241.146    2.18630E-18
  7243.699    1.90739E-18
  7246.252    1.25121E-18
  7248.805    2.12563E-18
  7251.358    1.07248E-18
  7253.911    1.48761E-18
  7256.464    2.07969E-18
  7259.017    1.58866E-18
  7261.570    1.49183E-18
  7264.123    1.34777E-18
  7266.676    1.53559E-18
  7269.229    1.98715E-18
  7271.782    1.54522E-18
  7274.335    1.78808E-18
  7276.888    1.55095E-18
  7279.441    1.36935E-18
  7281.994    1.91330E-18
  7284.547    1.39674E-18
  7287.100    1.48265E-18
  7289.653    9.69268E-19
  7292.206    1.70032E-18
  7294.759    2.09932E-18
  7297.312    1.36486E-18
  7299.865    1.89863E-18
  7302.418    1.69878E-18
  7304.971    1.22355E-18
  7307.524    2.51356E-18
  7310.077    2.04049E-18
  7312.630    1.10747E-18
  7315.183    2.11604E-18
  7317.736    1.68591E-18
  7320.289    1.42718E-18
  7322.842    1.64545E-18
  7325.395    1.02023E-18
  7327.948    1.39614E-18
  7330.501    1.77894E-18
  7333.054    2.12923E-18
  7335.607    2.10791E-18
  7338.160    1.78686E-18
  7340.713    1.33872E-18
  7343.266    1.01152E-18
  7345.819    1.37709E-18
  7348.372    1.52025E-18
  7350.925    2.00274E-18
  7353.478    1.11487E-18
  7356.031    1.75450E-18
  7358.584    1.85233E-18
  7361.137    1.71793E-18
  7363.690    1.48925E-18
  7366.243    1.35930E-18
  7368.796    2.35867E-18
  7371.349    1.85103E-18
  7373.902    1.71066E-18
  7376.455    2.13453E-18
  7379.008    1.46146E-18
  7381.561    2.11029E-18
  7384.114    1.98807E-18
  7386.667    1.56759E-18
  7389.220    1.54684E-18
  7391.773    1.91948E-18
  7394.326    1.65553E-18
  7396.879    1.12128E-18
  7399.432    1.16641E-18
  7401.985    1.31202E-18
  7404.538    1.44729E-18
  7407.091    1.80518E-18
  7409.644    1.48644E-18
  7412.197    2.05251E-18
  7414.750    2.26307E-18
  7417.303    1.56453E-18
  7419.856    1.01111E-18
  7422.409    1.41267E-18
  7424.962    1.83355E-18
  7427.515    2.08882E-18
  7430.068    2.25159E-18
  7432.621    1.73106E-18
  7435.174    1.69243E-18
  7437.727    1.38871E-18
  7440.280    1.52688E-18
  7442.833    1.46911E-18
  7445.386    1.16239E-18
  7447.939    1.53348E-18
  7450.492    1.72582E-18
  7453.045    1.56563E-18
  7455.598    1.85871E-18
