#|wavelength|    flux     |
# 5500.000   -2.16599E-18
  5502.553    4.88858E-19
  5505.106    2.20928E-18
#  5507.659   -2.27799E-18
  5510.212    2.75700E-18
  5512.765    1.46683E-18
  5515.318    1.00225E-18
  5517.871    7.49818E-19
  5520.424    5.36773E-19
  5522.977    2.12479E-18
  5525.530    5.72240E-19
  5528.083    3.89612E-19
  5530.636    1.16274E-18
  5533.189    1.36021E-18
  5535.742    5.11657E-19
  5538.295    2.14799E-18
  5540.848    2.55186E-18
  5543.401    2.81837E-18
  5545.954    6.12920E-19
  5548.507    3.90354E-19
  5551.060    1.30241E-18
  5553.613    2.83404E-18
  5556.166    1.01790E-18
  5558.719    1.12805E-18
  5561.272    3.62131E-19
  5563.825    6.49531E-19
#  5566.378   -6.85371E-19
  5568.931    1.09531E-18
  5571.484    1.79090E-18
  5574.037    1.31478E-18
#  5576.590   -1.09704E-18
  5579.143    6.15951E-19
  5581.696    1.09729E-18
  5584.249    1.05920E-18
  5586.802    1.38211E-18
  5589.355    1.72099E-18
  5591.908    2.13419E-18
  5594.461    9.19018E-19
  5597.014    2.07770E-18
  5599.567    1.93137E-18
  5602.120    2.38457E-18
  5604.673    1.78052E-18
  5607.226    1.95847E-18
  5609.779    1.13739E-18
  5612.332    9.75475E-19
  5614.885    1.90505E-18
  5617.438    1.39180E-18
  5619.991    2.57988E-18
  5622.544    1.87582E-18
  5625.097    1.92491E-18
  5627.650    1.35596E-18
  5630.203    1.64394E-18
  5632.756    1.53403E-18
  5635.309    2.25432E-18
  5637.862    1.91317E-18
  5640.415    1.17874E-18
  5642.968    8.13685E-19
  5645.521    7.15635E-19
  5648.074    1.40632E-18
  5650.627    1.27489E-18
  5653.180    2.25514E-18
  5655.733    1.34635E-18
  5658.286    1.85420E-18
  5660.839    1.07913E-18
  5663.392    1.88466E-18
  5665.945    1.49287E-18
  5668.498    1.29677E-18
  5671.051    1.20828E-18
  5673.604    1.29881E-18
  5676.157    1.15835E-18
  5678.710    1.39913E-18
  5681.263    1.53375E-18
  5683.816    1.21639E-18
  5686.369    1.25021E-18
  5688.922    1.29523E-18
  5691.475    1.52618E-18
  5694.028    8.75427E-19
  5696.581    1.13907E-18
  5699.134    1.62675E-18
  5701.687    8.72008E-19
  5704.240    1.75301E-18
  5706.793    1.88172E-18
#  5709.346        0.00000
  5711.899    1.73765E-18
  5714.452    2.18231E-18
  5717.005    1.18324E-18
  5719.558    1.41201E-18
  5722.111    1.46537E-18
  5724.664    1.82589E-18
  5727.217    1.46206E-18
  5729.770    1.69259E-18
  5732.323    1.72617E-18
  5734.876    1.19173E-18
  5737.429    1.21408E-18
  5739.982    1.11389E-18
  5742.535    1.10346E-18
  5745.088    1.28874E-18
  5747.641    1.08749E-18
  5750.194    1.57952E-18
  5752.747    1.95228E-18
  5755.300    1.28949E-18
  5757.853    1.67936E-18
  5760.406    1.91246E-18
  5762.959    1.96576E-18
  5765.512    1.46833E-18
  5768.065    2.06026E-18
  5770.618    1.77543E-18
  5773.171    1.72605E-18
  5775.724    1.54497E-18
  5778.277    1.49303E-18
  5780.830    1.97602E-18
  5783.383    1.74928E-18
  5785.936    1.81070E-18
  5788.489    1.65927E-18
  5791.042    9.30632E-19
  5793.595    1.64992E-18
  5796.148    1.94537E-18
  5798.701    1.91358E-18
  5801.254    1.34580E-18
  5803.807    2.30205E-18
  5806.360    1.86789E-18
  5808.913    1.17735E-18
  5811.466    2.09490E-18
  5814.019    1.62703E-18
  5816.572    1.89324E-18
  5819.125    1.81965E-18
  5821.678    1.56892E-18
  5824.231    1.40675E-18
  5826.784    1.48423E-18
  5829.337    1.68651E-18
  5831.890    1.93866E-18
  5834.443    1.80777E-18
  5836.996    2.24446E-18
  5839.549    1.34630E-18
  5842.102    2.10637E-18
  5844.655    1.29066E-18
  5847.208    2.40843E-18
  5849.761    1.55297E-18
  5852.314    1.40284E-18
  5854.867    1.48004E-18
  5857.420    1.55698E-18
  5859.973    1.95894E-18
  5862.526    1.46744E-18
  5865.079    1.10420E-18
  5867.632    1.41353E-18
  5870.185    1.84888E-18
  5872.738    1.64473E-18
  5875.291    1.62311E-18
  5877.844    1.90109E-18
  5880.397    1.14860E-18
  5882.950    2.02387E-18
  5885.503    1.93048E-18
  5888.056    1.27125E-18
  5890.609    1.62489E-18
  5893.162    1.86669E-18
  5895.715    2.29877E-18
  5898.268    1.65242E-18
  5900.821    1.35478E-18
  5903.374    1.26108E-18
  5905.927    1.81368E-18
  5908.480    2.41261E-18
  5911.033    1.86558E-18
  5913.586    1.52055E-18
  5916.139    1.61907E-18
  5918.692    1.65835E-18
  5921.245    1.65701E-18
  5923.798    1.88008E-18
  5926.351    1.70999E-18
  5928.904    1.49707E-18
  5931.457    1.80921E-18
  5934.010    1.31875E-18
  5936.563    8.95357E-19
  5939.116    6.59921E-19
  5941.669    1.41251E-18
  5944.222    1.71612E-18
  5946.775    1.41346E-18
  5949.328    2.23926E-18
  5951.881    2.16921E-18
  5954.434    2.06409E-18
  5956.987    1.26912E-18
  5959.540    1.16832E-18
  5962.093    1.97172E-18
  5964.646    1.74561E-18
  5967.199    1.90900E-18
  5969.752    1.27676E-18
  5972.305    1.57937E-18
  5974.858    1.92014E-18
  5977.411    1.07723E-18
  5979.964    1.28172E-18
  5982.517    1.16938E-18
  5985.070    1.42417E-18
  5987.623    2.00562E-18
  5990.176    1.38031E-18
  5992.729    1.10960E-18
  5995.282    1.75238E-18
  5997.835    1.94052E-18
  6000.388    1.70585E-18
  6002.941    1.61814E-18
  6005.494    2.12647E-18
  6008.047    1.14044E-18
  6010.600    1.79744E-18
  6013.153    1.69512E-18
  6015.706    1.55493E-18
  6018.259    1.52987E-18
  6020.812    1.92413E-18
  6023.365    1.75580E-18
  6025.918    1.62758E-18
  6028.471    1.61851E-18
  6031.024    1.56882E-18
  6033.577    1.46016E-18
  6036.130    1.46775E-18
  6038.683    1.62344E-18
  6041.236    1.44915E-18
  6043.789    1.80417E-18
  6046.342    1.36579E-18
  6048.895    1.05533E-18
  6051.448    1.60573E-18
  6054.001    1.53134E-18
  6056.554    2.08278E-18
  6059.107    2.09838E-18
  6061.660    1.42873E-18
  6064.213    1.37686E-18
  6066.766    1.95489E-18
  6069.319    1.36040E-18
  6071.872    1.37407E-18
  6074.425    1.75044E-18
  6076.978    1.79271E-18
  6079.531    1.57496E-18
  6082.084    1.54218E-18
  6084.637    1.74903E-18
  6087.190    2.15034E-18
  6089.743    1.69103E-18
  6092.296    1.95318E-18
  6094.849    1.78754E-18
  6097.402    1.32076E-18
  6099.955    1.51077E-18
  6102.508    1.76044E-18
  6105.061    1.61902E-18
  6107.614    1.51537E-18
  6110.167    1.73846E-18
  6112.720    1.61923E-18
  6115.273    1.98645E-18
  6117.826    1.54936E-18
  6120.379    1.68018E-18
  6122.932    1.80221E-18
  6125.485    1.52587E-18
  6128.038    1.48466E-18
  6130.591    2.06398E-18
  6133.144    1.89861E-18
  6135.697    1.88490E-18
  6138.250    9.56790E-19
  6140.803    1.54638E-18
  6143.356    2.12883E-18
#  6145.909        0.00000
  6148.462    2.17413E-18
  6151.015    1.79960E-18
  6153.568    1.75075E-18
  6156.121    1.50048E-18
  6158.674    1.21765E-18
  6161.227    1.39179E-18
  6163.780    1.29074E-18
  6166.333    2.32402E-18
  6168.886    1.37879E-18
  6171.439    2.00721E-18
  6173.992    1.42361E-18
  6176.545    1.26777E-18
  6179.098    1.70997E-18
  6181.651    1.96800E-18
  6184.204    1.72026E-18
  6186.757    1.38520E-18
  6189.310    1.64523E-18
  6191.863    1.71656E-18
  6194.416    1.57924E-18
  6196.969    1.47409E-18
  6199.522    1.58141E-18
  6202.075    1.07493E-18
  6204.628    1.38142E-18
#  6207.181        0.00000
  6209.734    2.05091E-18
  6212.287    1.26014E-18
  6214.840    1.92877E-18
  6217.393    1.30066E-18
  6219.946    1.67531E-18
  6222.499    2.25610E-18
  6225.052    1.77823E-18
  6227.605    1.42308E-18
  6230.158    1.39104E-18
  6232.711    1.50627E-18
  6235.264    1.37294E-18
#  6237.817        0.00000
  6240.370    1.86714E-18
  6242.923    1.64347E-18
  6245.476    2.08158E-18
  6248.029    1.36723E-18
  6250.582    1.66912E-18
  6253.135    2.44807E-18
  6255.688    1.86894E-18
  6258.241    1.45599E-18
  6260.794    1.71023E-18
  6263.347    1.97069E-18
  6265.900    1.31944E-18
  6268.453    1.76343E-18
  6271.006    1.81962E-18
  6273.559    1.71827E-18
  6276.112    2.03819E-18
  6278.665    2.11346E-18
  6281.218    1.69431E-18
  6283.771    1.47119E-18
  6286.324    1.59221E-18
  6288.877    2.85192E-18
  6291.430    2.27119E-18
  6293.983    3.03220E-18
  6296.536    4.36908E-19
  6299.089    2.79945E-19
  6301.642    1.53166E-18
  6304.195    1.73775E-18
  6306.748    1.63670E-18
  6309.301    1.49749E-18
  6311.854    1.59019E-18
  6314.407    1.15431E-18
  6316.960    1.63292E-18
  6319.513    1.19505E-18
  6322.066    1.02403E-18
  6324.619    2.20918E-18
  6327.172    1.89718E-18
  6329.725    1.91409E-18
  6332.278    1.80709E-18
  6334.831    1.81280E-18
  6337.384    1.46276E-18
  6339.937    1.67775E-18
  6342.490    1.80196E-18
  6345.043    1.79763E-18
  6347.596    1.41236E-18
  6350.149    1.47154E-18
  6352.702    2.40088E-18
  6355.255    1.58580E-18
#  6357.808        0.00000
  6360.361    1.26119E-18
  6362.914    8.67350E-19
  6365.467    2.00110E-18
  6368.020    9.26767E-19
  6370.573    1.80542E-18
  6373.126    1.53429E-18
  6375.679    1.67894E-18
  6378.232    1.88225E-18
  6380.785    1.56695E-18
  6383.338    1.74912E-18
  6385.891    1.88989E-18
  6388.444    8.70892E-19
  6390.997    1.58258E-18
  6393.550    1.95119E-18
  6396.103    1.93769E-18
  6398.656    1.49926E-18
  6401.209    1.72719E-18
  6403.762    1.98130E-18
  6406.315    1.30076E-18
  6408.868    1.55608E-18
  6411.421    2.09079E-18
  6413.974    2.07322E-18
  6416.527    2.00703E-18
  6419.080    1.92883E-18
  6421.633    1.52660E-18
  6424.186    1.59720E-18
  6426.739    1.35073E-18
  6429.292    1.83037E-18
  6431.845    1.80098E-18
  6434.398    1.58727E-18
  6436.951    1.87253E-18
  6439.504    1.29930E-18
  6442.057    1.66937E-18
  6444.610    1.67633E-18
  6447.163    1.48969E-18
  6449.716    2.06746E-18
  6452.269    1.86145E-18
  6454.822    1.07180E-18
  6457.375    1.85188E-18
  6459.928    1.85854E-18
  6462.481    1.48581E-18
  6465.034    1.48525E-18
  6467.587    1.58683E-18
  6470.140    1.90852E-18
  6472.693    1.39291E-18
  6475.246    1.11158E-18
  6477.799    1.65106E-18
  6480.352    1.56330E-18
  6482.905    1.83587E-18
  6485.458    1.73948E-18
  6488.011    1.52225E-18
  6490.564    1.31848E-18
  6493.117    1.51958E-18
  6495.670    1.43823E-18
  6498.223    1.73138E-18
  6500.776    1.58650E-18
  6503.329    7.72731E-19
  6505.882    1.52507E-18
  6508.435    1.64437E-18
  6510.988    1.56608E-18
  6513.541    2.12537E-18
  6516.094    1.51656E-18
  6518.647    1.66962E-18
  6521.200    2.14896E-18
  6523.753    1.10518E-18
  6526.306    1.69905E-18
  6528.859    1.86338E-18
  6531.412    1.60166E-18
  6533.965    2.04948E-18
  6536.518    2.06177E-18
  6539.071    1.29456E-18
  6541.624    2.35124E-18
  6544.177    1.56563E-18
  6546.730    1.80324E-18
  6549.283    1.99205E-18
  6551.836    1.85352E-18
  6554.389    1.16807E-18
  6556.942    1.36721E-18
  6559.495    1.75988E-18
  6562.048    1.67935E-18
  6564.601    1.80131E-18
  6567.154    1.29626E-18
  6569.707    1.25775E-18
  6572.260    1.66166E-18
  6574.813    1.46864E-18
  6577.366    1.81375E-18
  6579.919    1.61681E-18
  6582.472    1.53630E-18
  6585.025    1.95742E-18
  6587.578    1.94761E-18
  6590.131    1.97657E-18
  6592.684    1.55661E-18
#  6595.237        0.00000
  6597.790    1.76689E-18
  6600.343    2.05030E-18
  6602.896    2.03417E-18
  6605.449    1.58614E-18
  6608.002    1.55357E-18
  6610.555    1.17672E-18
  6613.108    1.85443E-18
  6615.661    2.15756E-18
  6618.214    1.71949E-18
  6620.767    2.06547E-18
  6623.320    1.99148E-18
  6625.873    1.82323E-18
  6628.426    2.06859E-18
  6630.979    1.53752E-18
  6633.532    1.51908E-18
  6636.085    1.92344E-18
  6638.638    1.90162E-18
  6641.191    1.50833E-18
  6643.744    1.31001E-18
  6646.297    1.75810E-18
  6648.850    1.49594E-18
  6651.403    1.57935E-18
  6653.956    1.75145E-18
  6656.509    1.60872E-18
  6659.062    1.75219E-18
  6661.615    1.82550E-18
  6664.168    1.64248E-18
  6666.721    2.01967E-18
  6669.274    1.59293E-18
  6671.827    1.91403E-18
  6674.380    1.59007E-18
  6676.933    1.27982E-18
  6679.486    1.84613E-18
  6682.039    1.83052E-18
  6684.592    1.40218E-18
#  6687.145        0.00000
  6689.698    1.28631E-18
  6692.251    1.79879E-18
  6694.804    1.76888E-18
  6697.357    1.51830E-18
  6699.910    1.62773E-18
  6702.463    1.79111E-18
  6705.016    1.36769E-18
  6707.569    1.56785E-18
  6710.122    2.32572E-18
  6712.675    1.02364E-18
  6715.228    1.24682E-18
  6717.781    1.44331E-18
  6720.334    1.35361E-18
  6722.887    1.68685E-18
  6725.440    1.78486E-18
  6727.993    1.51667E-18
  6730.546    1.30185E-18
  6733.099    1.56649E-18
  6735.652    1.62995E-18
  6738.205    1.80454E-18
  6740.758    1.66808E-18
  6743.311    1.89289E-18
  6745.864    1.64882E-18
  6748.417    1.69893E-18
  6750.970    1.92531E-18
  6753.523    1.48671E-18
  6756.076    2.02420E-18
  6758.629    1.81558E-18
  6761.182    2.06851E-18
  6763.735    2.07039E-18
  6766.288    1.73960E-18
  6768.841    1.89772E-18
  6771.394    1.52838E-18
  6773.947    1.43700E-18
  6776.500    1.40330E-18
  6779.053    1.85878E-18
  6781.606    2.27661E-18
  6784.159    1.77445E-18
  6786.712    1.84851E-18
  6789.265    1.78326E-18
  6791.818    1.81131E-18
  6794.371    1.64767E-18
  6796.924    1.88497E-18
  6799.477    2.01249E-18
  6802.030    1.28107E-18
  6804.583    1.79409E-18
  6807.136    1.79939E-18
  6809.689    1.81178E-18
  6812.242    1.22607E-18
  6814.795    1.79296E-18
  6817.348    2.17898E-18
  6819.901    1.44936E-18
  6822.454    1.62020E-18
  6825.007    2.31009E-18
  6827.560    1.88145E-18
  6830.113    1.45853E-18
  6832.666    1.63634E-18
  6835.219    1.57477E-18
  6837.772    1.57071E-18
  6840.325    1.55293E-18
  6842.878    1.58728E-18
  6845.431    1.81870E-18
  6847.984    1.60419E-18
  6850.537    1.79997E-18
  6853.090    1.90953E-18
  6855.643    1.49820E-18
  6858.196    1.11926E-18
  6860.749    1.78734E-18
  6863.302    2.14108E-18
  6865.855    1.90193E-18
  6868.408    1.17195E-18
  6870.961    1.29906E-18
  6873.514    1.49100E-18
  6876.067    1.59662E-18
  6878.620    1.55417E-18
  6881.173    1.32473E-18
  6883.726    1.18552E-18
  6886.279    1.75794E-18
  6888.832    1.35426E-18
  6891.385    1.36492E-18
  6893.938    1.37269E-18
  6896.491    1.73680E-18
  6899.044    1.28997E-18
  6901.597    1.75756E-18
  6904.150    1.04268E-18
  6906.703    1.68284E-18
  6909.256    1.99538E-18
  6911.809    1.59655E-18
  6914.362    2.03181E-18
  6916.915    1.05250E-18
  6919.468    1.98874E-18
  6922.021    2.11892E-18
  6924.574    2.00284E-18
  6927.127    1.79985E-18
  6929.680    1.85805E-18
  6932.233    1.48175E-18
  6934.786    1.58342E-18
  6937.339    2.16627E-18
  6939.892    2.28796E-18
  6942.445    1.67380E-18
  6944.998    1.81178E-18
  6947.551    1.35545E-18
  6950.104    1.59056E-18
  6952.657    2.21374E-18
  6955.210    1.92814E-18
  6957.763    2.02742E-18
  6960.316    1.82730E-18
  6962.869    1.14176E-18
  6965.422    1.94302E-18
  6967.975    2.18647E-18
  6970.528    1.99011E-18
  6973.081    1.58115E-18
  6975.634    1.82394E-18
  6978.187    1.52822E-18
  6980.740    1.87994E-18
  6983.293    1.65895E-18
  6985.846    1.27648E-18
  6988.399    1.46361E-18
  6990.952    1.67538E-18
  6993.505    1.53769E-18
  6996.058    1.97537E-18
  6998.611    1.51593E-18
  7001.164    1.57335E-18
  7003.717    1.04280E-18
  7006.270    1.73347E-18
  7008.823    1.73895E-18
  7011.376    1.19369E-18
  7013.929    1.85299E-18
  7016.482    1.64765E-18
  7019.035    1.82596E-18
  7021.588    1.95396E-18
  7024.141    1.22109E-18
  7026.694    1.34009E-18
  7029.247    1.53823E-18
  7031.800    1.29304E-18
  7034.353    1.53918E-18
  7036.906    1.38284E-18
  7039.459    1.33061E-18
  7042.012    2.17288E-18
  7044.565    2.10047E-18
  7047.118    1.44786E-18
  7049.671    1.50173E-18
  7052.224    1.78553E-18
  7054.777    1.36449E-18
  7057.330    1.17022E-18
  7059.883    1.59130E-18
  7062.436    2.17004E-18
  7064.989    1.66812E-18
  7067.542    1.76979E-18
  7070.095    1.79752E-18
  7072.648    1.94492E-18
  7075.201    2.11930E-18
  7077.754    3.98033E-18
  7080.307    7.07162E-18
  7082.860    1.02947E-17
  7085.413    1.27564E-17
  7087.966    1.29128E-17
  7090.519    1.09587E-17
  7093.072    7.00467E-18
  7095.625    4.38651E-18
  7098.178    2.07860E-18
  7100.731    1.19076E-18
  7103.284    1.42632E-18
  7105.837    1.57458E-18
  7108.390    1.67502E-18
  7110.943    1.94314E-18
  7113.496    2.04056E-18
  7116.049    2.53005E-18
  7118.602    2.28789E-18
  7121.155    1.64970E-18
  7123.708    1.87989E-18
  7126.261    1.43432E-18
  7128.814    1.06596E-18
  7131.367    1.70325E-18
  7133.920    1.80769E-18
#  7136.473        0.00000
  7139.026    1.92421E-18
  7141.579    2.01780E-18
  7144.132    2.15355E-18
  7146.685    2.03636E-18
  7149.238    2.26508E-18
  7151.791    2.05181E-18
  7154.344    2.38170E-18
  7156.897    2.08918E-18
  7159.450    2.02717E-18
  7162.003    1.86931E-18
  7164.556    1.49248E-18
  7167.109    1.66971E-18
  7169.662    1.69938E-18
  7172.215    1.91662E-18
  7174.768    1.72820E-18
  7177.321    1.60399E-18
  7179.874    2.04780E-18
  7182.427    1.84460E-18
  7184.980    2.77438E-18
  7187.533    2.48726E-18
  7190.086    1.92815E-18
  7192.639    2.38765E-18
  7195.192    2.51717E-18
  7197.745    2.65289E-18
  7200.298    2.48528E-18
  7202.851    2.22489E-18
  7205.404    2.29101E-18
  7207.957    2.03997E-18
  7210.510    2.24285E-18
  7213.063    2.45672E-18
  7215.616    1.81969E-18
  7218.169    2.11939E-18
  7220.722    1.75969E-18
  7223.275    1.43637E-18
  7225.828    1.93638E-18
  7228.381    1.84110E-18
  7230.934    2.92282E-18
  7233.487    2.13756E-18
  7236.040    2.49881E-18
  7238.593    2.62561E-18
  7241.146    2.30138E-18
  7243.699    3.01188E-18
  7246.252    2.36095E-18
  7248.805    2.63969E-18
  7251.358    2.23202E-18
  7253.911    2.41869E-18
  7256.464    2.75967E-18
  7259.017    2.63956E-18
  7261.570    2.32027E-18
  7264.123    2.36996E-18
  7266.676    2.86582E-18
  7269.229    2.07317E-18
  7271.782    1.87176E-18
  7274.335    2.31271E-18
  7276.888    2.09319E-18
  7279.441    2.06104E-18
  7281.994    2.17974E-18
  7284.547    2.04135E-18
  7287.100    1.46430E-18
  7289.653    1.57940E-18
  7292.206    1.51141E-18
  7294.759    1.66415E-18
  7297.312    1.94860E-18
  7299.865    2.24204E-18
  7302.418    1.99990E-18
  7304.971    2.36074E-18
  7307.524    2.39189E-18
  7310.077    2.61599E-18
  7312.630    2.22562E-18
  7315.183    2.50895E-18
  7317.736    1.99767E-18
  7320.289    2.48888E-18
  7322.842    2.63756E-18
  7325.395    2.35236E-18
  7327.948    2.40226E-18
  7330.501    3.09642E-18
  7333.054    3.06744E-18
  7335.607    1.56799E-18
  7338.160    2.05838E-18
  7340.713    2.25680E-18
  7343.266    2.31763E-18
  7345.819    3.24788E-18
  7348.372    2.71668E-18
  7350.925    2.61161E-18
  7353.478    3.14189E-18
  7356.031    3.50534E-18
  7358.584    3.03253E-18
  7361.137    2.32517E-18
  7363.690    3.60177E-18
  7366.243    2.38259E-18
  7368.796    2.71109E-18
  7371.349    1.99713E-18
  7373.902    2.52421E-18
  7376.455    2.15712E-18
  7379.008    2.50246E-18
  7381.561    2.07300E-18
  7384.114    2.04337E-18
  7386.667    1.87850E-18
  7389.220    2.44361E-18
  7391.773    2.25593E-18
  7394.326    2.02679E-18
  7396.879    2.40865E-18
  7399.432    2.34020E-18
  7401.985    2.14480E-18
  7404.538    2.11217E-18
  7407.091    2.23982E-18
  7409.644    2.18586E-18
  7412.197    2.43425E-18
  7414.750    2.07752E-18
  7417.303    2.16407E-18
  7419.856    2.43533E-18
  7422.409    2.57819E-18
  7424.962    2.70817E-18
  7427.515    2.50254E-18
  7430.068    2.34579E-18
  7432.621    2.59271E-18
  7435.174    2.37810E-18
  7437.727    2.89484E-18
  7440.280    2.70291E-18
  7442.833    2.33469E-18
  7445.386    2.30012E-18
  7447.939    2.63562E-18
  7450.492    2.97146E-18
  7453.045    3.00673E-18
  7455.598    2.15327E-18
