#|wavelength|    flux     |
 5500.000    8.07832E-19
  5502.553    8.78090E-19
  5505.106    9.51114E-19
  5507.659    1.02347E-18
  5510.212    1.09335E-18
  5512.765    1.16446E-18
  5515.318    1.23312E-18
  5517.871    1.30254E-18
  5520.424    1.36838E-18
  5522.977    1.43237E-18
  5525.530    1.49081E-18
  5528.083    1.54570E-18
  5530.636    1.60035E-18
  5533.189    1.65432E-18
  5535.742    1.70660E-18
  5538.295    1.75168E-18
  5540.848    1.79241E-18
  5543.401    1.82862E-18
  5545.954    1.86288E-18
  5548.507    1.89300E-18
  5551.060    1.92173E-18
  5553.613    1.94859E-18
  5556.166    1.97469E-18
  5558.719    1.99783E-18
  5561.272    2.02110E-18
  5563.825    2.04495E-18
  5566.378    2.06893E-18
  5568.931    2.08856E-18
  5571.484    2.10359E-18
  5574.037    2.11815E-18
  5576.590    2.13684E-18
  5579.143    2.16030E-18
  5581.696    2.18393E-18
  5584.249    2.20324E-18
  5586.802    2.21737E-18
  5589.355    2.22927E-18
  5591.908    2.24427E-18
  5594.461    2.26404E-18
  5597.014    2.28724E-18
  5599.567    2.30850E-18
  5602.120    2.32582E-18
  5604.673    2.34015E-18
  5607.226    2.35481E-18
  5609.779    2.37064E-18
  5612.332    2.38590E-18
  5614.885    2.39780E-18
  5617.438    2.40548E-18
  5619.991    2.40997E-18
  5622.544    2.41408E-18
  5625.097    2.41698E-18
  5627.650    8.05373E-19
  5630.203    2.31284E-18
#  5632.756        0.00000
  5635.309    1.88713E-18
  5637.862    1.52182E-18
  5640.415    2.06249E-18
  5642.968    2.82711E-18
  5645.521    1.98880E-18
  5648.074    1.83820E-18
  5650.627    1.41880E-18
  5653.180    2.21779E-18
  5655.733    2.17676E-18
  5658.286    2.13492E-18
  5660.839    2.26502E-18
  5663.392    1.20762E-18
  5665.945    1.37990E-18
  5668.498    7.57511E-19
  5671.051    1.93964E-18
  5673.604    1.05984E-18
  5676.157    1.74295E-18
  5678.710    1.92202E-18
  5681.263    1.58200E-18
  5683.816    1.33209E-18
  5686.369    2.09046E-18
  5688.922    2.19152E-18
  5691.475    2.54749E-18
  5694.028    1.62674E-18
  5696.581    9.03527E-19
  5699.134    1.72810E-18
  5701.687    1.51696E-18
  5704.240    1.88816E-18
  5706.793    1.34541E-18
  5709.346    1.85533E-18
  5711.899    2.24505E-18
  5714.452    1.43844E-18
  5717.005    2.07341E-18
  5719.558    1.74447E-18
  5722.111    9.55213E-19
  5724.664    1.74686E-18
  5727.217    1.86672E-18
  5729.770    1.43254E-18
  5732.323    1.72229E-18
  5734.876    1.31488E-18
  5737.429    1.53387E-18
  5739.982    1.39263E-18
  5742.535    1.47860E-18
  5745.088    1.84762E-18
  5747.641    2.19518E-18
  5750.194    1.78813E-18
  5752.747    1.78836E-18
  5755.300    1.53183E-18
  5757.853    1.55271E-18
  5760.406    1.51594E-18
  5762.959    1.92366E-18
  5765.512    3.17661E-18
  5768.065    2.10340E-18
  5770.618    1.77802E-18
  5773.171    1.73692E-18
  5775.724    9.10351E-19
  5778.277    2.53211E-18
  5780.830    1.84183E-18
  5783.383    1.84298E-18
  5785.936    2.22541E-18
  5788.489    2.15478E-18
  5791.042    2.65163E-18
  5793.595    1.88865E-18
  5796.148    2.82285E-18
  5798.701    1.81998E-18
  5801.254    1.99182E-18
  5803.807    2.69934E-18
  5806.360    1.27752E-18
  5808.913    1.63091E-18
  5811.466    1.87984E-18
  5814.019    2.17466E-18
  5816.572    1.64363E-18
  5819.125    1.33691E-18
  5821.678    1.60867E-18
  5824.231    8.77267E-19
  5826.784    2.11211E-18
  5829.337    2.17526E-18
  5831.890    2.04073E-18
  5834.443    1.77054E-18
  5836.996    1.61230E-18
  5839.549    2.17283E-18
  5842.102    1.48393E-18
  5844.655    2.13115E-18
  5847.208    1.37190E-18
  5849.761    2.55877E-18
  5852.314    2.18305E-18
  5854.867    2.32672E-18
  5857.420    2.75215E-18
  5859.973    1.72178E-18
  5862.526    2.16710E-18
  5865.079    1.23528E-18
  5867.632    2.28042E-18
  5870.185    1.99342E-18
  5872.738    2.10432E-18
  5875.291    1.79348E-18
  5877.844    1.84587E-18
  5880.397    9.36193E-19
  5882.950    2.04323E-18
  5885.503    2.71001E-18
  5888.056    1.97361E-18
  5890.609    1.98202E-18
  5893.162    8.86264E-19
  5895.715    1.43144E-18
  5898.268    1.46339E-18
  5900.821    2.34886E-18
  5903.374    2.35733E-18
  5905.927    2.23133E-18
  5908.480    1.58670E-18
  5911.033    1.81322E-18
  5913.586    1.36034E-18
  5916.139    2.38730E-18
  5918.692    1.80916E-18
  5921.245    2.26522E-18
  5923.798    1.67992E-18
  5926.351    9.03908E-19
  5928.904    2.26000E-18
  5931.457    2.14927E-18
  5934.010    1.44200E-18
  5936.563    2.56127E-18
  5939.116    3.10617E-18
  5941.669    2.17218E-18
  5944.222    1.02100E-18
  5946.775    1.66710E-18
  5949.328    2.21505E-18
  5951.881    1.63666E-18
  5954.434    1.73000E-18
  5956.987    1.13453E-18
  5959.540    1.84701E-18
  5962.093    1.79546E-18
  5964.646    1.61211E-18
  5967.199    1.86862E-18
  5969.752    1.42655E-18
  5972.305    1.02363E-18
  5974.858    1.34520E-18
  5977.411    2.56215E-18
  5979.964    2.42487E-18
  5982.517    1.77316E-18
  5985.070    2.64144E-18
  5987.623    1.13439E-18
  5990.176    1.70937E-18
  5992.729    1.42970E-18
  5995.282    1.82995E-18
  5997.835    1.96908E-18
  6000.388    1.91963E-18
  6002.941    1.92790E-18
  6005.494    1.94113E-18
  6008.047    1.77823E-18
  6010.600    1.72406E-18
  6013.153    1.98640E-18
  6015.706    1.44485E-18
  6018.259    1.42649E-18
  6020.812    2.49053E-18
  6023.365    1.58247E-18
  6025.918    1.98769E-18
  6028.471    1.57025E-18
  6031.024    2.03477E-18
  6033.577    2.28869E-18
  6036.130    2.08899E-18
  6038.683    2.09940E-18
  6041.236    1.89382E-18
  6043.789    2.13456E-18
  6046.342    1.60791E-18
  6048.895    1.96385E-18
  6051.448    2.18317E-18
  6054.001    1.79500E-18
  6056.554    1.47059E-18
  6059.107    1.58053E-18
  6061.660    2.02744E-18
  6064.213    1.70710E-18
  6066.766    1.17578E-18
  6069.319    2.13312E-18
  6071.872    1.61825E-18
  6074.425    2.02396E-18
  6076.978    1.41244E-18
  6079.531    1.63950E-18
  6082.084    2.15137E-18
  6084.637    1.54164E-18
  6087.190    1.70172E-18
  6089.743    1.55527E-18
  6092.296    1.25981E-18
  6094.849    1.72358E-18
  6097.402    1.94875E-18
  6099.955    1.46361E-18
  6102.508    1.90967E-18
  6105.061    1.74146E-18
  6107.614    2.03189E-18
  6110.167    1.53228E-18
  6112.720    2.62024E-18
  6115.273    1.79285E-18
  6117.826    1.88393E-18
  6120.379    2.03160E-18
  6122.932    2.10483E-18
  6125.485    1.80113E-18
  6128.038    2.30054E-18
  6130.591    1.49032E-18
  6133.144    1.27941E-18
  6135.697    1.87508E-18
  6138.250    1.74529E-18
  6140.803    1.81655E-18
  6143.356    1.04539E-18
  6145.909    2.27202E-18
  6148.462    2.72871E-18
  6151.015    2.21393E-18
  6153.568    1.29061E-18
  6156.121    2.15604E-18
  6158.674    1.87598E-18
  6161.227    1.71462E-18
  6163.780    1.77315E-18
  6166.333    2.55097E-18
  6168.886    2.57466E-18
  6171.439    1.76575E-18
  6173.992    2.12622E-18
  6176.545    1.79772E-18
  6179.098    1.90111E-18
  6181.651    2.12457E-18
  6184.204    2.12843E-18
  6186.757    2.03499E-18
  6189.310    1.51229E-18
  6191.863    1.19504E-18
  6194.416    1.41976E-18
  6196.969    1.18910E-18
  6199.522    1.96820E-18
  6202.075    1.88403E-18
  6204.628    1.32179E-18
  6207.181    2.27883E-18
  6209.734    1.81466E-18
  6212.287    2.12055E-18
  6214.840    2.06442E-18
  6217.393    1.86668E-18
  6219.946    1.94971E-18
  6222.499    1.91236E-18
  6225.052    1.37707E-18
  6227.605    1.45079E-18
  6230.158    1.82610E-18
  6232.711    1.64297E-18
  6235.264    2.35508E-18
  6237.817    1.95961E-18
  6240.370    2.50674E-18
  6242.923    2.26256E-18
  6245.476    1.54906E-18
  6248.029    1.41943E-18
  6250.582    2.33100E-18
  6253.135    1.67543E-18
  6255.688    1.62088E-18
  6258.241    1.41105E-18
  6260.794    1.85255E-18
  6263.347    1.82778E-18
  6265.900    1.85346E-18
  6268.453    1.69042E-18
  6271.006    2.03405E-18
  6273.559    1.70228E-18
  6276.112    2.16202E-18
  6278.665    1.70253E-18
  6281.218    1.70907E-18
  6283.771    1.71976E-18
  6286.324    1.73506E-18
  6288.877    1.75021E-18
  6291.430    1.76450E-18
  6293.983    1.77738E-18
  6296.536    1.79042E-18
  6299.089    1.80351E-18
  6301.642    1.81580E-18
  6304.195    1.82885E-18
  6306.748    1.84160E-18
  6309.301    1.85394E-18
  6311.854    1.86286E-18
  6314.407    1.40159E-18
  6316.960    1.88861E-18
  6319.513    1.39347E-18
  6322.066    6.26297E-19
  6324.619    1.11925E-18
  6327.172    1.54979E-18
  6329.725    8.27628E-19
  6332.278    1.29424E-18
  6334.831    1.82512E-18
  6337.384    2.14825E-18
  6339.937    1.56227E-18
  6342.490    1.46022E-18
  6345.043    2.24175E-18
  6347.596    2.33293E-18
  6350.149    1.76966E-18
  6352.702    4.70315E-19
  6355.255    2.38742E-19
  6357.808    2.54524E-18
  6360.361    2.00815E-18
  6362.914    3.15061E-18
  6365.467    3.10840E-18
  6368.020    2.49833E-18
  6370.573    2.05080E-18
#  6373.126        0.00000
  6375.679    1.94715E-18
  6378.232    1.19583E-18
  6380.785    2.70398E-18
  6383.338    1.59477E-18
  6385.891    2.25732E-18
  6388.444    2.25760E-18
  6390.997    2.17051E-18
  6393.550    1.86256E-18
  6396.103    1.23627E-18
  6398.656    1.46405E-18
  6401.209    1.72900E-18
  6403.762    1.50118E-18
  6406.315    2.12767E-18
  6408.868    1.62577E-18
  6411.421    2.74390E-18
  6413.974    1.40533E-18
  6416.527    1.82459E-18
  6419.080    2.13737E-18
  6421.633    2.25714E-18
  6424.186    2.15304E-18
  6426.739    2.00547E-18
  6429.292    1.41237E-18
  6431.845    1.26031E-18
  6434.398    1.82395E-18
  6436.951    2.32193E-18
  6439.504    2.10103E-18
  6442.057    1.59124E-18
  6444.610    1.48482E-18
  6447.163    1.61188E-18
  6449.716    1.56603E-18
  6452.269    1.29790E-18
  6454.822    1.47015E-18
  6457.375    1.43748E-18
  6459.928    1.64093E-18
  6462.481    1.98027E-18
  6465.034    1.98507E-18
  6467.587    1.80815E-18
  6470.140    2.37162E-18
  6472.693    2.29828E-18
  6475.246    1.68001E-18
  6477.799    2.12382E-18
  6480.352    2.11921E-18
  6482.905    2.05625E-18
  6485.458    2.19710E-18
  6488.011    1.23921E-18
  6490.564    1.70688E-18
  6493.117    2.56769E-18
  6495.670    2.34363E-18
  6498.223    1.27506E-18
  6500.776    2.12549E-18
  6503.329    1.99434E-18
  6505.882    2.03610E-18
  6508.435    1.99041E-18
  6510.988    2.15711E-18
  6513.541    1.51910E-18
  6516.094    2.37278E-18
  6518.647    1.94589E-18
  6521.200    1.62594E-18
  6523.753    1.21412E-18
  6526.306    2.30702E-18
  6528.859    2.48075E-18
  6531.412    2.58594E-18
  6533.965    1.41169E-18
  6536.518    1.86475E-18
  6539.071    1.56751E-18
  6541.624    1.49181E-18
  6544.177    1.80161E-18
  6546.730    1.48540E-18
  6549.283    2.12080E-18
  6551.836    2.26873E-18
  6554.389    2.04868E-18
  6556.942    1.81426E-18
  6559.495    2.33339E-18
  6562.048    1.40238E-18
  6564.601    1.82586E-18
  6567.154    9.92371E-19
  6569.707    1.47471E-18
  6572.260    1.86270E-18
  6574.813    1.78741E-18
  6577.366    2.19615E-18
  6579.919    1.57054E-18
  6582.472    2.41757E-18
  6585.025    2.04284E-18
  6587.578    1.89385E-18
  6590.131    1.81765E-18
  6592.684    2.40590E-18
  6595.237    1.67823E-18
  6597.790    1.54271E-18
  6600.343    1.68261E-18
  6602.896    2.82837E-18
  6605.449    1.63241E-18
  6608.002    1.72010E-18
  6610.555    1.39549E-18
  6613.108    1.54051E-18
  6615.661    2.28629E-18
  6618.214    1.73231E-18
  6620.767    2.19146E-18
  6623.320    2.06958E-18
  6625.873    1.50634E-18
  6628.426    1.75687E-18
  6630.979    2.11442E-18
  6633.532    2.25363E-18
  6636.085    1.53442E-18
  6638.638    2.18782E-18
  6641.191    2.10198E-18
  6643.744    2.04396E-18
  6646.297    1.69611E-18
  6648.850    1.90114E-18
  6651.403    2.83424E-18
  6653.956    2.55692E-18
  6656.509    2.73475E-18
  6659.062    1.80620E-18
  6661.615    2.20391E-18
  6664.168    1.84997E-18
  6666.721    2.06572E-18
  6669.274    1.23795E-18
  6671.827    1.66794E-18
  6674.380    1.90366E-18
  6676.933    1.77807E-18
  6679.486    2.46975E-18
  6682.039    2.10601E-18
  6684.592    2.01120E-18
  6687.145    1.72429E-18
  6689.698    1.54711E-18
  6692.251    1.45746E-18
  6694.804    1.90492E-18
  6697.357    2.20508E-18
  6699.910    2.44364E-18
  6702.463    2.97757E-18
  6705.016    3.77461E-18
  6707.569    4.98937E-18
  6710.122    4.41230E-18
  6712.675    4.17340E-18
  6715.228    2.46235E-18
  6717.781    2.80405E-18
  6720.334    2.14742E-18
  6722.887    1.52148E-18
  6725.440    2.32326E-18
  6727.993    1.83098E-18
  6730.546    1.77758E-18
  6733.099    2.56246E-18
  6735.652    2.51562E-18
  6738.205    2.88635E-18
  6740.758    2.22540E-18
  6743.311    1.92971E-18
  6745.864    2.13574E-18
  6748.417    1.58499E-18
  6750.970    1.65545E-18
  6753.523    1.95713E-18
  6756.076    1.71374E-18
  6758.629    1.98179E-18
  6761.182    2.11576E-18
  6763.735    2.55976E-18
  6766.288    2.13069E-18
  6768.841    1.78542E-18
  6771.394    2.40271E-18
  6773.947    2.02108E-18
  6776.500    1.90566E-18
  6779.053    2.07180E-18
  6781.606    2.27131E-18
  6784.159    1.33077E-18
  6786.712    1.80331E-18
  6789.265    1.98997E-18
  6791.818    2.28919E-18
  6794.371    1.99207E-18
  6796.924    1.52642E-18
  6799.477    1.87012E-18
  6802.030    2.38438E-18
  6804.583    2.47636E-18
  6807.136    2.73623E-18
  6809.689    2.28883E-18
  6812.242    2.58388E-18
  6814.795    2.66832E-18
  6817.348    2.39712E-18
  6819.901    2.16806E-18
  6822.454    2.41562E-18
  6825.007    2.05410E-18
  6827.560    8.43744E-19
  6830.113    1.93793E-18
  6832.666    1.58947E-18
  6835.219    2.04660E-18
  6837.772    1.63064E-18
  6840.325    1.91181E-18
  6842.878    2.14675E-18
  6845.431    1.66983E-18
  6847.984    2.33767E-18
  6850.537    2.50000E-18
  6853.090    2.26030E-18
  6855.643    2.32263E-18
  6858.196    2.84275E-18
  6860.749    3.55082E-18
  6863.302    3.22743E-18
  6865.855    1.27882E-18
  6868.408    3.03213E-18
  6870.961    2.84339E-18
  6873.514    1.62975E-18
  6876.067    2.51074E-18
  6878.620    1.90452E-18
  6881.173    2.48793E-18
  6883.726    2.96619E-18
  6886.279    2.36062E-18
  6888.832    2.83275E-18
  6891.385    1.99921E-18
  6893.938    1.83019E-18
  6896.491    2.23614E-18
  6899.044    1.31336E-18
  6901.597    1.65977E-18
  6904.150    2.14701E-18
  6906.703    2.26613E-18
  6909.256    1.66483E-18
  6911.809    2.02811E-18
  6914.362    1.85783E-18
  6916.915    2.06427E-18
  6919.468    2.97296E-18
  6922.021    2.43003E-18
  6924.574    2.48478E-18
  6927.127    2.22726E-18
  6929.680    2.57092E-18
  6932.233    2.40326E-18
  6934.786    2.09666E-18
  6937.339    3.18478E-18
  6939.892    2.28823E-18
  6942.445    2.47030E-18
  6944.998    2.00684E-18
  6947.551    2.40756E-18
  6950.104    2.15798E-18
  6952.657    2.22891E-18
  6955.210    3.07020E-18
  6957.763    3.17262E-18
  6960.316    2.58307E-18
  6962.869    2.68049E-18
  6965.422    2.28161E-18
  6967.975    3.13593E-18
  6970.528    2.31147E-18
  6973.081    1.34862E-18
  6975.634    2.31224E-18
  6978.187    2.52109E-18
  6980.740    1.90670E-18
  6983.293    2.84793E-18
  6985.846    2.27816E-18
  6988.399    2.11236E-18
  6990.952    2.00879E-18
  6993.505    1.50269E-18
  6996.058    2.47168E-18
  6998.611    2.12102E-18
  7001.164    2.62047E-18
  7003.717    2.62445E-18
  7006.270    2.35584E-18
  7008.823    1.97909E-18
  7011.376    2.26500E-18
  7013.929    2.61217E-18
  7016.482    3.02665E-18
#  7019.035        0.00000
  7021.588    2.77940E-18
  7024.141    2.44438E-18
  7026.694    2.00716E-18
  7029.247    3.02633E-18
  7031.800    2.92143E-18
  7034.353    3.03697E-18
  7036.906    2.93964E-18
  7039.459    2.38842E-18
  7042.012    3.32844E-18
  7044.565    2.20192E-18
  7047.118    2.68213E-18
  7049.671    3.06596E-18
  7052.224    2.87212E-18
  7054.777    3.40036E-18
  7057.330    3.38681E-18
  7059.883    2.32609E-18
  7062.436    2.68467E-18
  7064.989    3.37253E-18
  7067.542    2.67587E-18
  7070.095    1.93536E-18
  7072.648    1.95322E-18
  7075.201    2.12451E-18
  7077.754    1.62783E-18
  7080.307    2.00470E-18
  7082.860    2.30162E-18
  7085.413    2.37317E-18
  7087.966    2.21204E-18
  7090.519    2.09365E-18
  7093.072    2.78216E-18
  7095.625    2.95165E-18
  7098.178    2.83120E-18
  7100.731    2.79956E-18
  7103.284    2.51541E-18
  7105.837    2.78727E-18
  7108.390    2.55860E-18
  7110.943    3.03018E-18
  7113.496    2.73133E-18
  7116.049    2.29298E-18
  7118.602    2.59299E-18
  7121.155    2.89682E-18
  7123.708    2.47390E-18
  7126.261    2.29912E-18
  7128.814    2.68789E-18
  7131.367    2.03691E-18
  7133.920    1.63771E-18
  7136.473    2.14727E-18
  7139.026    1.56282E-18
  7141.579    1.72041E-18
  7144.132    1.90475E-18
  7146.685    2.05613E-18
  7149.238    2.12674E-18
  7151.791    1.86872E-18
  7154.344    2.25775E-18
  7156.897    2.25213E-18
  7159.450    2.82698E-18
  7162.003    2.76076E-18
  7164.556    2.29081E-18
  7167.109    2.92921E-18
  7169.662    2.64939E-18
  7172.215    2.52552E-18
  7174.768    2.94718E-18
  7177.321    2.53707E-18
  7179.874    2.55524E-18
  7182.427    2.26313E-18
  7184.980    2.58703E-18
  7187.533    2.88436E-18
  7190.086    3.25218E-18
  7192.639    2.55897E-18
  7195.192    3.43218E-18
  7197.745    2.52164E-18
  7200.298    3.19637E-18
  7202.851    3.37046E-18
  7205.404    2.52799E-18
  7207.957    3.29643E-18
  7210.510    2.43240E-18
  7213.063    2.71004E-18
  7215.616    2.50818E-18
  7218.169    2.45818E-18
  7220.722    3.58689E-18
  7223.275    3.33506E-18
  7225.828    2.49345E-18
  7228.381    3.57540E-18
  7230.934    3.12336E-18
  7233.487    3.33849E-18
  7236.040    2.73686E-18
  7238.593    3.41257E-18
  7241.146    3.20830E-18
  7243.699    3.27054E-18
  7246.252    3.51139E-18
  7248.805    2.05142E-18
  7251.358    2.53489E-18
  7253.911    3.26795E-18
  7256.464    3.03820E-18
  7259.017    2.73583E-18
  7261.570    2.89696E-18
  7264.123    2.54986E-18
  7266.676    2.14006E-18
  7269.229    2.88153E-18
  7271.782    2.80967E-18
  7274.335    4.55899E-18
  7276.888    3.21882E-18
  7279.441    2.66300E-18
  7281.994    3.27482E-18
  7284.547    3.32542E-18
  7287.100    3.65023E-18
  7289.653    3.03092E-18
  7292.206    2.69852E-18
  7294.759    2.35860E-18
  7297.312    2.64301E-18
  7299.865    2.82520E-18
  7302.418    3.06490E-18
  7304.971    2.67452E-18
  7307.524    2.83573E-18
  7310.077    3.21397E-18
  7312.630    2.01792E-18
  7315.183    2.36225E-18
  7317.736    3.42185E-18
  7320.289    3.23429E-18
  7322.842    3.18616E-18
  7325.395    3.00048E-18
  7327.948    2.54808E-18
  7330.501    2.37746E-18
  7333.054    2.04913E-18
  7335.607    2.86413E-18
  7338.160    1.48834E-18
  7340.713    3.34022E-18
  7343.266    3.49076E-18
  7345.819    1.88117E-18
  7348.372    2.30501E-18
  7350.925    3.30145E-18
  7353.478    2.37701E-18
  7356.031    2.53262E-18
  7358.584    3.30171E-18
  7361.137    2.38606E-18
  7363.690    1.67786E-18
  7366.243    3.03525E-18
  7368.796    2.26968E-18
  7371.349    2.13542E-18
  7373.902    2.41936E-18
  7376.455    2.38211E-18
  7379.008    2.48247E-18
  7381.561    2.86512E-18
  7384.114    2.72908E-18
  7386.667    3.83491E-18
  7389.220    2.22811E-18
  7391.773    3.16996E-18
  7394.326    2.39657E-18
  7396.879    2.97873E-18
  7399.432    3.38763E-18
  7401.985    1.80693E-18
  7404.538    2.18912E-18
  7407.091    2.80330E-18
  7409.644    1.76874E-18
  7412.197    3.42419E-18
  7414.750    3.18928E-18
  7417.303    2.69277E-18
  7419.856    2.83983E-18
  7422.409    2.29648E-18
  7424.962    2.75247E-18
  7427.515    3.28482E-18
  7430.068    2.56760E-18
  7432.621    1.76632E-18
  7435.174    2.30384E-18
  7437.727    1.97243E-18
  7440.280    2.40897E-18
  7442.833    3.30766E-18
  7445.386    3.17242E-18
  7447.939    3.47377E-18
  7450.492    3.12090E-18
  7453.045    3.13594E-18
  7455.598    2.78529E-18
  7458.151    3.03371E-18
